#Wave		#Intensity
3200.600830	54.728081
3200.007080	50.518227
3199.413086	75.765892
3198.819092	37.877220
3198.224854	33.663551
3197.630615	54.695000
3197.036377	46.273388
3196.442139	21.030178
3195.847656	46.259399
3195.252930	46.252407
3194.658447	29.428900
3194.063721	67.255882
3193.468750	96.665718
3192.873779	33.617775
3192.278809	71.426964
3191.683838	58.813313
3191.088623	46.203472
3190.493164	46.196484
3189.897949	50.388542
3189.302490	37.785690
3188.706787	50.373299
3188.111328	54.562820
3187.515381	33.572041
3186.919678	88.113274
3186.323730	71.319000
3185.727783	50.335209
3185.131592	71.297424
3184.535400	54.513309
3183.939209	54.505058
3183.342773	25.152374
3182.746338	58.679993
3182.149902	25.144762
3181.553223	29.331116
3180.956543	67.032402
3180.359619	46.077805
3179.762695	67.012115
3179.165771	67.001968
3178.568604	20.934946
3177.971436	46.049908
3177.374268	71.157265
3176.776855	41.850880
3176.179443	50.213451
3175.581787	46.022026
3174.984131	62.747807
3174.386475	41.825535
3173.788574	41.819202
3173.190674	75.263161
3172.592773	91.974380
3171.994629	33.440163
3171.396484	66.870193
3170.798340	62.681313
3170.199951	87.740547
3169.601563	66.839813
3169.002930	50.122265
3168.404297	50.114670
3167.805664	100.214157
3167.206787	50.099487
3166.607910	75.137840
3166.008789	58.431690
3165.409912	50.076714
3164.810547	45.896698
3164.211426	66.748718
3163.612061	45.882790
3163.012695	62.557957
3162.413086	79.228065
3161.813477	54.200459
3161.213623	37.517708
3160.614014	58.352032
3160.013916	54.175816
3159.414063	45.834122
3158.813965	41.661068
3158.213867	24.992851
3157.613525	41.648434
3157.013184	54.134754
3156.412598	70.780869
3155.812256	37.466541
3155.211426	58.272446
3154.610840	45.778549
3154.010010	33.288441
3153.409180	58.245937
3152.808105	58.237103
3152.207031	70.705750
3151.605957	49.902370
3151.004639	87.315903
3150.403320	58.201771
3149.801758	37.409748
3149.200195	74.808144
3148.598633	58.175282
3147.996826	37.392719
3147.395020	91.390556
3146.793213	62.302284
3146.191162	74.751396
3145.589111	45.674477
3144.986816	41.515949
3144.384766	78.868332
3143.782227	41.503345
3143.179932	29.047932
3142.577393	49.788895
3141.974609	45.632893
3141.371826	103.695374
3140.769043	91.238068
3140.166260	78.784554
3139.563232	29.021481
3138.960205	103.632401
3138.356934	45.591331
3137.753662	62.160557
3137.150391	29.003855
3136.546875	66.284454
3135.943359	53.847939
3135.339600	70.405838
3134.735840	57.972473
3134.132080	33.122097
3133.528076	41.396328
3132.924072	82.780083
3132.320068	62.075626
3131.715820	41.377464
3131.111572	37.234058
3130.507080	66.183823
3129.902588	62.037907
3129.298096	62.028477
3128.693604	53.749844
3128.088867	53.741676
3127.483887	82.666931
3126.878906	49.592621
3126.273926	78.509712
3125.668945	74.366318
3125.063721	45.439175
3124.458252	45.432266
3123.853027	78.461983
3123.247559	78.450058
3122.641846	45.411549
3122.036133	78.426201
3121.430420	82.541344
3120.824707	99.034546
3120.218750	90.767860
3119.612549	78.378502
3119.006592	65.992912
3118.400391	28.867508
3117.793945	53.602932
3117.187500	103.066879
3116.581055	94.807106
3115.974609	53.578472
3115.367920	74.174294
3114.760986	49.442005
3114.154297	94.749420
3113.547363	65.902611
3112.940186	78.247444
3112.333008	24.705959
3111.725830	57.638466
3111.118408	90.560944
3110.510986	82.315605
3109.903564	98.763687
3109.295898	102.863182
3108.688232	53.480713
3108.080566	53.472572
3107.472656	61.689732
3106.864746	148.032806
3106.256592	41.113964
3105.648438	41.107704
3105.040039	73.982605
3104.431885	69.861816
3103.823486	61.633396
3103.214844	82.165344
3102.606201	41.076416
3101.997559	49.284191
3101.388672	106.766151
3100.779785	78.009537
3100.170898	73.892517
3099.561768	86.194801
3098.952637	53.350559
3098.343262	94.375069
3097.733887	73.847496
3097.124512	82.040276
3096.514893	86.129166
3095.905273	98.418335
3095.295410	57.401947
3094.685791	77.890770
3094.075684	57.384453
3093.465820	86.063560
3092.855713	86.050446
3092.245361	94.231361
3091.635254	106.506172
3091.024658	94.202637
3090.414307	85.997993
3089.803711	77.795845
3089.193115	77.783989
3088.582275	94.145203
3087.971436	85.945557
3087.360596	98.208519
3086.749512	69.553764
3086.138428	61.361607
3085.527100	49.081802
3084.915771	57.253368
3084.304443	32.711220
3083.692871	61.324184
3083.081299	89.928421
3082.469482	77.653603
3081.857910	73.555351
3081.245850	49.029423
3080.634033	53.107105
3080.021973	53.099003
3079.409668	77.594391
3078.797607	73.499260
3078.185059	81.653381
3077.572754	106.133202
3076.960205	97.954163
3076.347656	97.939209
3075.734863	97.924263
3075.122070	69.352432
3074.509033	57.105053
3073.895996	85.644508
3073.282959	61.165310
3072.669922	85.618362
3072.056641	77.452408
3071.443115	77.440582
3070.829834	89.654350
3070.216064	57.044060
3069.602539	97.774887
3068.988770	65.173302
3068.375000	89.599609
3067.760986	44.792961
3067.146973	85.500778
3066.532715	101.771095
3065.918701	93.615105
3065.304199	77.322411
3064.689941	97.655487
3064.075439	89.503860
3063.460693	77.286980
3062.846191	77.275169
3062.231445	69.130379
3061.616455	97.580917
3061.001465	77.239761
3060.386475	117.874245
3059.771240	117.856239
3059.156006	101.584679
3058.540771	97.506386
3057.925293	121.864357
3057.309814	85.292015
3056.694092	101.522591
3056.078369	60.904243
3055.462646	109.610878
3054.846680	44.649460
3054.230713	64.934738
3053.614502	105.502823
3052.998291	77.086426
3052.382080	73.018082
3051.765625	36.503456
3051.149170	93.272354
3050.532715	64.875191
3049.916016	81.081589
3049.299316	97.283028
3048.682373	77.003952
3048.065430	85.096611
3047.448486	44.567596
3046.831299	76.968620
3046.214111	85.057571
3045.596680	72.895332
3044.979248	141.719238
3044.361816	68.824532
3043.744141	93.101295
3043.126465	117.370628
3042.508545	89.026161
3041.890869	97.104584
3041.272705	93.044319
3040.654785	105.164444
3040.036621	93.015846
3039.418213	109.175804
3038.799805	113.202019
3038.181396	92.973137
3037.562988	72.750450
3036.944336	64.657166
3036.325439	113.132721
3035.706543	113.115402
3035.087646	109.058868
3034.468750	84.810577
3033.849609	92.873550
3033.230469	96.896690
3032.611084	113.028824
3031.991699	64.578011
3031.372070	100.887688
3030.752441	112.976906
3030.132813	133.130951
3029.513184	96.807686
3028.893066	68.561607
3028.273193	145.167038
3027.653076	100.795006
3027.032959	120.935471
3026.412598	88.672424
3025.792480	104.778625
3025.171875	96.703911
3024.551270	96.689095
3023.930664	108.758568
3023.310059	112.769379
3022.689209	120.805817
3022.068115	116.761055
3021.447266	84.538147
3020.826172	88.550201
3020.204834	124.756157
3019.583496	140.832138
3018.962158	84.486328
3018.340576	68.383209
3017.718994	84.460426
3017.097412	112.596634
3016.475586	140.724213
3015.853760	76.381432
3015.231689	144.700516
3014.609619	104.489899
3013.987549	96.437424
3013.365234	152.669174
3012.742920	88.373856
3012.120361	120.491325
3011.497803	100.394035
3010.875244	52.196888
3010.252441	124.450409
3009.629639	92.320007
3009.006836	92.305847
3008.383789	120.380455
3007.760498	120.361984
3007.137451	140.400772
3006.514160	128.346725
3005.890625	112.286148
3005.267090	168.403381
3004.643555	136.305618
3004.019775	128.267944
3003.395996	120.232750
3002.772217	92.164291
3002.148193	164.267639
3001.524170	108.159645
3000.899902	132.174835
3000.275635	88.103027
2999.651367	108.109840
2999.026855	88.075974
2998.402344	100.070969
2997.777588	156.086731
2997.152832	112.045059
2996.528076	72.017906
2995.903076	148.014069
2995.278076	119.992981
2994.653076	123.973701
2994.027832	139.948807
2993.402344	91.952232
2992.777100	111.924652
2992.151367	123.897545
2991.525879	143.858917
2990.900146	75.913872
2990.274414	171.778687
2989.648438	135.804138
2989.022461	131.789642
2988.396240	107.811317
2987.770264	123.764343
2987.143799	111.769966
2986.517578	131.708649
2985.891113	143.660065
2985.264404	159.597763
2984.637695	151.594574
2984.010986	115.672806
2983.384033	127.619339
2982.757080	167.474640
2982.130127	171.435760
2981.502930	183.368195
2980.875732	155.440445
2980.248291	195.266922
2979.620850	211.174606
2978.993408	171.304001
2978.365723	135.428833
2977.738037	191.164246
2977.110107	183.170898
2976.482178	191.105453
2975.854248	222.922058
2975.226074	206.967209
2974.597900	222.853470
2973.969482	198.945709
2973.341309	230.741516
2972.712646	258.549835
2972.083984	258.510071
2971.455322	254.493820
2970.826660	286.261475
2970.197754	278.266937
2969.568604	302.071899
2968.939697	357.661682
2968.310547	369.526825
2967.681152	365.497162
2967.051758	436.940216
2966.422363	333.612061
2965.792725	369.299347
2965.163086	448.649506
2964.533203	424.761993
2963.903564	460.418732
2963.273438	488.127441
2962.643311	456.309052
2962.013184	511.780884
2961.383057	551.368896
2960.752686	456.098267
2960.122314	507.579010
2959.491699	555.079041
2958.861084	531.208130
2958.230225	566.798950
2957.599609	574.637634
2956.968506	503.225800
2956.337646	554.651611
2955.706299	526.837891
2955.075195	538.638428
2954.443848	526.675537
2953.812500	518.675659
2953.180908	490.884521
2952.549316	538.306519
2951.917725	542.181030
2951.285889	494.614502
2950.653809	462.887817
2950.021973	466.772156
2949.389893	518.116333
2948.757568	490.355133
2948.125244	423.063782
2947.492920	486.250702
2946.860352	438.743958
2946.227783	411.012024
2945.595215	426.754364
2944.962402	418.786926
2944.329590	383.170441
2943.696533	359.413757
2943.063477	387.001251
2942.430420	359.302887
2941.797119	327.665283
2941.163574	335.509064
2940.530273	359.136658
2939.896729	311.729889
2939.262939	315.627136
2938.629150	303.744232
2937.995361	406.244537
2937.361328	358.859711
2936.727295	327.261078
2936.093262	299.614532
2935.458984	303.509979
2934.824707	319.227448
2934.190186	334.940063
2933.555664	378.226868
2932.921143	386.046997
2932.286377	378.110107
2931.651367	425.308228
2931.016602	437.054871
2930.381592	448.797852
2929.746338	413.302643
2929.111084	507.693390
2928.475830	456.460022
2927.840332	515.405396
2927.204834	538.928528
2926.569336	570.310730
2925.933594	511.234100
2925.297607	566.202637
2924.661865	573.977905
2924.025879	554.235474
2923.389648	609.171875
2922.753418	656.232178
2922.117188	561.836548
2921.480713	601.032959
2920.844238	675.566650
2920.207764	620.482788
2919.571045	659.651917
2918.934082	632.068726
2918.297363	561.315918
2917.660156	627.948730
2917.023193	639.623901
2916.385986	568.902649
2915.748779	604.120422
2915.111328	627.560608
2914.473877	556.873901
2913.836182	611.682434
2913.198486	591.985718
2912.560791	611.493286
2911.922852	587.883423
2911.284912	662.246277
2910.646729	599.455688
2910.008545	587.610779
2909.370361	595.353516
2908.731934	618.758606
2908.093506	606.916138
2907.455078	649.887085
2906.816406	669.358459
2906.177490	739.702820
2905.538574	665.238220
2904.899658	712.086060
2904.260498	794.126953
2903.621338	794.004089
2902.982178	844.720947
2902.342773	793.758423
2901.703369	758.449829
2901.063721	711.425293
2900.424072	695.681885
2899.784424	820.621277
2899.144531	742.351990
2898.504639	750.050110
2897.864502	746.028076
2897.224365	753.723206
2896.583984	691.131409
2895.943848	773.010376
2895.303223	694.820923
2894.662842	694.713379
2894.021973	784.358215
2893.381348	729.613342
2892.740479	713.896057
2892.099609	744.989258
2891.458496	748.773743
2890.817383	733.060791
2890.176025	674.467407
2889.534668	814.692810
2888.893311	791.181946
2888.251709	787.162537
2887.610107	794.833069
2886.968262	763.544861
2886.326416	880.277588
2885.684570	884.035645
2885.042480	852.748047
2884.400391	973.305847
2883.758057	965.369751
2883.115723	906.839905
2882.473389	895.025146
2881.830811	945.466980
2881.188232	941.430237
2880.545410	980.180359
2879.902588	1073.364502
2879.259766	972.099731
2878.616699	964.173462
2877.973633	1065.091064
2877.330322	1006.627075
2876.687012	971.497070
2876.043457	920.836426
2875.399902	889.615417
2874.756348	908.898376
2874.112549	873.805176
2873.468750	869.786743
2872.824707	958.946411
2872.180664	896.689331
2871.536621	838.332703
2870.892334	838.202698
2870.248047	869.112427
2869.603760	834.063293
2868.958984	795.146301
2868.314453	930.758545
2867.669678	907.348816
2867.024902	829.668884
2866.379883	922.572693
2865.734863	844.914429
2865.089844	937.786987
2864.444580	864.024963
2863.799316	867.764832
2863.153809	867.630127
2862.508301	797.786011
2861.862549	813.150757
2861.216797	739.465210
2860.571045	731.608521
2859.925049	716.013550
2859.279053	626.898315
2858.632813	584.240417
2857.986572	568.675537
2857.340332	506.700195
2856.693848	502.754150
2856.047363	494.942596
2855.400635	463.936646
2854.753906	506.385498
2854.107178	502.441925
2853.460205	486.906525
2852.813232	463.648468
2852.166016	467.439575
2851.518799	424.879059
2850.871338	467.294373
2850.223877	451.776398
2849.576416	505.756531
2848.928711	451.636017
2848.281006	482.442139
2847.633301	497.802917
2846.985352	497.725555
2846.337158	489.932739
2845.688965	539.999390
2845.040771	501.350067
2844.392578	586.102844
2843.743896	528.181580
2843.095459	655.305969
2842.446777	608.954346
2841.798096	597.299072
2841.149170	566.382690
2840.500244	674.160217
2839.851074	685.610657
2839.202148	639.290283
2838.552734	731.604004
2837.903320	681.440918
2837.253906	750.623230
2836.604492	700.472717
2835.954834	665.730347
2835.304932	707.949890
2834.655029	634.747620
2834.005127	603.878052
2833.354980	565.326477
2832.704834	534.477295
2832.054688	526.704956
2831.404297	511.247162
2830.753906	430.456940
2830.103271	426.547180
2829.452637	391.901276
2828.801758	299.642578
2828.150879	399.461273
2827.500000	360.995331
2826.848877	280.303802
2826.197754	326.330322
2825.546387	303.248047
2824.895020	237.955078
2824.243408	291.641449
2823.591797	230.207413
2822.940186	295.386841
2822.288330	306.847626
2821.636475	230.099884
2820.984619	249.236069
2820.332520	260.698669
2819.680176	214.659576
2819.028076	237.621796
2818.375488	229.920761
2817.723145	199.233627
2817.070557	249.003235
2816.417725	233.643555
2815.764893	241.266403
2815.112061	283.348145
2814.458984	233.534363
2813.805908	218.186646
2813.152832	256.425049
2812.499512	233.425217
2811.845947	225.736740
2811.192383	206.574310
2810.538818	225.666397
2809.885010	233.279739
2809.231201	210.301407
2808.577393	256.145416
2807.923340	206.413376
2807.269287	206.381195
2806.614990	221.634125
2805.960693	240.702988
2805.306152	221.565018
2804.651611	217.710983
2803.997070	198.582550
2803.342285	194.733292
2802.687500	217.609146
2802.032471	221.392319
2801.377441	217.541275
2800.722412	217.507339
2800.067139	217.473419
2799.411621	244.142578
2798.756348	190.706635
2798.100586	198.303970
2797.445068	190.647141
2796.789307	205.866791
2796.133301	243.952194
2795.477539	224.858337
2794.821289	205.770432
2794.165283	240.028030
2793.509033	217.134323
2792.852539	194.247757
2792.196045	247.532043
2791.539551	186.571945
2790.882813	216.998795
2790.226074	213.158524
2789.569092	167.455551
2788.912109	235.923248
2788.255127	247.300278
2787.597900	239.653610
2786.940430	228.205887
2786.283203	197.747559
2785.625488	193.914429
2784.968018	224.297348
2784.310303	212.859146
2783.652588	224.227295
2782.994629	231.792007
2782.336426	243.153625
2781.678467	254.511688
2781.020264	178.510162
2780.361816	246.837173
2779.703369	243.001709
2779.044922	167.037567
2778.386230	212.560059
2777.727539	220.117081
2777.068604	235.260803
2776.409668	201.078613
2775.750732	238.980621
2775.091553	216.186768
2774.432373	200.984344
2773.772949	227.493881
2773.113525	242.622208
2772.453857	204.680481
2771.794189	219.807632
2771.134521	208.405685
2770.474609	208.373108
2769.814697	238.644592
2769.154541	208.307938
2768.494385	215.849014
2767.833984	204.456573
2767.173584	246.066635
2766.513184	249.813202
2765.852539	234.636307
2765.191895	272.438232
2764.531006	200.513443
2763.870117	204.264755
2763.209229	192.886536
2762.548096	242.015823
2761.886719	200.388000
2761.225586	196.576324
2760.563965	215.444183
2759.902588	241.864395
2759.240967	226.712387
2758.579102	249.344589
2757.917236	245.528214
2757.255371	196.391830
2756.593262	237.899002
2755.931152	256.739685
2755.269043	249.149506
2754.606689	230.238495
2753.944092	260.392944
2753.281494	245.259293
2752.618896	248.993515
2751.956055	230.094330
2751.293213	237.601196
2750.630371	230.022278
2749.967285	248.837585
2749.303955	229.950241
2748.640625	320.372284
2747.977295	312.785095
2747.313721	237.378006
2746.650146	267.479340
2745.986572	248.603821
2745.322754	263.629425
2744.658691	312.540192
2743.994873	267.311768
2743.330566	267.269867
2742.666504	237.117798
2742.002197	263.422943
2741.337646	278.432037
2740.673096	282.150391
2740.008545	240.730606
2739.343750	248.214523
2738.678955	304.579163
2738.013916	255.656006
2737.348877	300.724640
2736.683594	308.194427
2736.018311	304.388214
2735.353027	289.311340
2734.687500	244.185562
2734.021973	270.440063
2733.356201	262.886597
2732.690430	262.845367
2732.024658	319.119324
2731.358643	300.300507
2730.692383	349.044586
2730.026367	303.958893
2729.359863	285.151245
2728.693604	307.614929
2728.027100	341.323975
2727.360352	333.769989
2726.693604	363.714691
2726.026855	296.174774
2725.359863	307.373688
2724.692871	386.030731
2724.025635	397.212006
2723.358398	322.215790
2722.691162	348.387939
2722.023682	337.096710
2721.355957	340.788727
2720.688477	393.156036
2720.020508	423.044373
2719.352783	336.885101
2718.684814	314.376740
2718.016602	359.231293
2717.348389	344.209259
2716.680176	381.563385
2716.011719	366.542542
2715.343262	299.171417
2714.674561	370.166473
2714.005859	332.723663
2713.337158	332.671417
2712.668213	328.881866
2711.999023	321.356781
2711.329834	317.570190
2710.660645	302.578156
2709.991455	317.470398
2709.321777	324.889252
2708.652344	328.571991
2707.982666	306.121246
2707.312988	328.468719
2706.643066	279.900940
2705.972900	294.782654
2705.302979	350.698914
2704.632813	328.262299
2703.962402	294.643677
2703.291992	302.055542
2702.621582	279.637085
2701.950928	279.593109
2701.280273	290.731140
2700.609375	227.330902
2699.938477	339.079681
2699.267334	327.849670
2698.596191	283.098358
2697.925049	346.368530
2697.253662	275.561707
2696.582031	305.304138
2695.910645	308.978760
2695.239014	290.319916
2694.567139	238.173752
2693.895264	316.274750
2693.223145	275.301758
2692.551270	264.099335
2691.878906	271.496002
2691.206543	290.045990
2690.534180	290.000366
2689.861816	263.933136
2689.189209	315.926575
2688.516357	304.728271
2687.843506	304.680298
2687.170654	312.062408
2686.497559	319.442169
2685.824463	267.397858
2685.151123	304.488525
2684.477783	304.440582
2683.804199	308.104767
2683.130615	293.210175
2682.457031	270.898376
2681.783203	281.986786
2681.109375	296.781464
2680.435303	267.061249
2679.761230	278.144989
2679.086914	315.181335
2678.412598	281.764801
2677.738281	322.495758
2677.063721	333.563751
2676.389160	329.805511
2675.714355	285.292419
2675.039551	292.656494
2674.364502	322.241821
2673.689453	288.860931
2673.014404	329.545807
2672.339111	299.876434
2671.663574	277.619629
2670.988037	273.874847
2670.312500	288.633392
2669.636719	277.488373
2668.960938	299.640198
2668.285156	292.195618
2667.609131	325.432434
2666.932861	325.381134
2666.256592	258.785095
2665.580322	325.278534
2664.903809	295.661133
2664.227295	291.919342
2663.550781	328.819275
2662.874023	258.581116
2662.197021	291.781250
2661.520020	280.656677
2660.843018	287.996948
2660.165771	291.643219
2659.488525	295.288330
2658.811035	302.622772
2658.133545	317.334808
2657.455811	302.527313
2656.778076	328.300995
2656.100342	335.625580
2655.422363	287.633698
2654.744385	294.962341
2654.066162	302.288696
2653.387939	313.298584
2652.709473	316.934418
2652.031006	309.515015
2651.352539	276.309052
2650.673828	287.316071
2649.994873	316.734375
2649.316162	231.989716
2648.636963	309.270782
2647.958008	305.540741
2647.278809	294.450592
2646.599365	334.884674
2645.919922	312.754974
2645.240479	301.668915
2644.560791	338.404358
2643.880859	286.862732
2643.201172	301.526001
2642.520996	349.273743
2641.841064	312.458710
2641.160889	286.681519
2640.480469	345.433411
2639.800049	304.962158
2639.119629	297.566681
2638.438965	319.558136
2637.758301	330.525146
2637.077393	301.097565
2636.396484	334.092041
2635.715332	282.648590
2635.034180	333.986450
2634.353027	300.907257
2633.671631	315.535767
2632.989990	293.475250
2632.308350	330.107483
2631.626709	311.718872
2630.944824	311.669586
2630.262939	333.617065
2629.581055	311.571045
2628.898926	311.521790
2628.216553	289.486237
2627.534180	267.457642
2626.851807	307.710785
2626.169189	303.999481
2625.486572	362.544434
2624.803711	336.856689
2624.120850	292.872528
2623.437988	314.788177
2622.754883	307.418884
2622.071533	307.370239
2621.388184	321.955963
2620.704834	296.298950
2620.021240	281.622345
2619.337646	314.489441
2618.653809	343.689880
2617.969971	310.734222
2617.286133	347.236237
2616.602051	328.908569
2615.917725	347.126312
2615.233398	306.884155
2614.549072	336.058014
2613.864502	295.830322
2613.179932	354.209869
2612.495117	321.294159
2611.810303	361.398682
2611.125488	317.542480
2610.440430	277.349518
2609.755127	357.578278
2609.069824	368.466187
2608.384521	313.693787
2607.698975	299.056000
2607.013428	280.776398
2606.327637	309.898865
2605.641846	331.721527
2604.956055	313.445404
2604.270020	346.192993
2603.583740	349.781677
2602.897461	331.511353
2602.211182	331.458832
2601.524658	284.062531
2600.838135	331.353790
2600.151367	302.175873
2599.464600	320.328461
2598.777832	305.719635
2598.090820	349.338470
2597.403564	301.984344
2596.716309	341.952148
2596.029053	298.251404
2595.341553	363.663544
2594.654053	356.333771
2593.966309	276.296661
2593.278564	298.062286
2592.590820	308.917999
2591.902832	316.136505
2591.214600	341.518616
2590.526367	330.566650
2589.838135	297.825989
2589.149658	359.513367
2588.461182	308.624146
2587.772461	315.835754
2587.083740	348.453156
2586.394775	308.477264
2585.705811	341.085449
2585.016846	333.775330
2584.327637	362.741699
2583.638184	333.669403
2582.948975	377.131653
2582.259277	322.686432
2581.569824	315.384979
2580.879883	322.584015
2580.190186	315.284882
2579.500244	322.481598
2578.810059	355.035736
2578.119873	315.134735
2577.429688	329.571381
2576.739258	296.929230
2576.048584	304.123108
2575.358154	318.554596
2574.667236	307.645905
2573.976563	351.022522
2573.285645	350.966766
2572.594482	347.293365
2571.903320	329.152893
2571.212158	350.799530
2570.520752	350.743805
2569.829102	332.611389
2569.137451	318.099487
2568.445801	299.977966
2567.753906	350.520966
2567.062012	317.947876
2566.370117	357.634521
2565.677979	372.025269
2564.985596	368.354828
2564.293213	346.631775
2563.600830	310.474945
2562.908203	353.740814
2562.215332	339.248474
2561.522705	310.326904
2560.829590	346.356384
2560.136719	346.301300
2559.443604	360.673157
2558.750244	295.704987
2558.056885	346.136139
2557.363525	317.240997
2556.669922	331.608307
2555.976074	345.971039
2555.282227	317.089661
2554.588379	281.012054
2553.894287	356.612396
2553.200195	316.938385
2552.505859	385.306946
2551.811523	342.040527
2551.117188	341.986115
2550.422607	349.130249
2549.727783	388.660492
2549.032959	392.196777
2548.338135	338.170929
2547.643066	370.490021
2546.947998	327.274048
2546.252686	298.455170
2545.557373	330.765137
2544.861816	283.981384
2544.166260	359.412872
2543.470703	366.542755
2542.774902	352.112457
2542.078857	312.539886
2541.382813	362.775879
2540.686768	344.761780
2539.990479	355.478943
2539.294189	384.143341
2538.597656	326.649323
2537.901123	344.542206
2537.204346	348.075714
2536.507568	315.729736
2535.810791	383.837524
2535.113770	358.669495
2534.416504	351.440125
2533.719238	337.041901
2533.021973	322.648285
2532.324463	430.129150
2531.626953	326.129303
2530.929199	318.910797
2530.231445	365.435028
2529.533447	376.123169
2528.835449	368.900116
2528.137451	372.422302
2527.439209	365.202087
2526.740723	372.303558
2526.042236	365.085663
2525.343750	390.078369
2524.645020	329.187958
2523.946289	339.868164
2523.247314	339.813965
2522.548340	361.218292
2521.849121	357.584839
2521.149902	361.103088
2520.450684	321.723724
2519.751221	389.581024
2519.051514	303.753235
2518.351807	389.456726
2517.652100	410.829163
2516.952148	360.757629
2516.252197	399.984222
2515.552002	339.218201
2514.851807	360.584961
2514.151367	360.527435
2513.450928	389.021973
2512.750244	371.117706
2512.049561	399.601440
2511.348877	374.566559
2510.647949	403.040619
2509.946777	356.616180
2509.245605	385.083984
2508.544434	349.372284
2507.843018	356.445404
2507.141602	402.718994
2506.439941	338.515015
2505.738281	399.027649
2505.036377	349.093445
2504.334473	363.284149
2503.632568	381.031311
2502.930420	416.575195
2502.228027	391.589325
2501.525635	402.204773
2500.823242	423.493134
2500.120605	409.192688
2499.417969	380.666290
2498.715088	401.947815
2498.012207	348.536224
2497.309082	369.816071
2496.605957	369.756989
2495.902588	391.026611
2495.199219	437.168976
2494.495605	390.901642
2493.791992	394.392242
2493.088379	390.776703
2492.384521	376.506439
2491.680664	401.305908
2490.976563	355.081207
2490.272461	376.325897
2489.568115	383.365082
2488.863770	397.500244
2488.159180	454.213348
2487.454590	408.017029
2486.749756	407.951782
2486.044922	397.246033
2485.339844	390.089966
2484.634766	411.301788
2483.929688	379.329773
2483.224365	407.625641
2482.519043	340.224365
2481.813477	460.646790
2481.107666	343.658386
2480.402100	449.872498
2479.696045	428.550110
2478.990234	382.446320
2478.284180	421.331757
2477.577881	414.184235
2476.871582	414.117950
2476.165039	431.746185
2475.458496	392.755371
2474.751953	413.919128
2474.045166	420.927277
2473.338379	435.006439
2472.631348	399.576080
2471.924072	413.654144
2471.217041	388.843323
2470.509521	406.452942
2469.802246	420.523071
2469.094482	374.523590
2468.386963	377.996307
2467.679199	388.532074
2466.971191	416.722198
2466.263184	448.434265
2465.554932	388.345398
2464.846680	391.813049
2464.138428	398.808838
2463.429932	409.331085
2462.721436	377.512146
2462.012695	370.396484
2461.303955	366.810120
2460.594971	416.121704
2459.885986	409.003235
2459.176758	423.039001
2458.467529	419.446442
2457.758057	373.564667
2457.048584	380.552032
2456.338867	405.152496
2455.629150	440.312561
2454.919434	433.198090
2454.209473	408.479034
2453.499512	426.017578
2452.789307	422.429016
2452.078857	446.999023
2451.368408	418.774445
2450.657959	432.781464
2449.947266	432.712067
2449.236572	439.677490
2448.525879	439.606964
2447.814697	369.210602
2447.103760	414.855835
2446.392578	411.274109
2445.681152	456.897919
2444.969727	407.628113
2444.258301	393.508820
2443.546631	386.419861
2442.834717	410.944275
2442.122803	445.996124
2441.410889	382.722626
2440.698730	421.278412
2439.986572	407.170410
2439.274170	456.238434
2438.561768	396.512817
2437.849121	487.667542
2437.136475	445.495209
2436.423584	459.452789
2435.710693	473.405853
2434.997803	438.268372
2434.284424	378.603058
2433.571289	427.612549
2432.857910	438.057251
2432.144287	501.057007
2431.430908	497.473206
2430.717041	465.868347
2430.003174	413.260406
2429.289307	427.200592
2428.575195	469.144958
2427.861084	427.063354
2427.146729	440.994568
2426.432373	437.424286
2425.717773	416.361023
2425.003174	426.788910
2424.288330	423.222626
2423.573486	409.166016
2422.858643	409.100250
2422.143555	454.482758
2421.428223	496.355225
2420.712891	461.326447
2419.997559	447.274933
2419.281982	461.178131
2418.566162	436.651489
2417.850586	471.507782
2417.134521	460.955688
2416.418457	418.983246
2415.702393	366.551392
2414.986084	460.733337
2414.269775	432.740509
2413.553223	432.670898
2412.836670	484.932098
2412.120117	509.271210
2411.403076	449.900116
2410.686279	442.853638
2409.969238	446.268860
2409.251953	505.457611
2408.534668	477.493439
2407.817383	459.992645
2407.099854	418.107849
2406.382080	449.393585
2405.664307	435.388824
2404.946533	473.626801
2404.228516	480.514526
2403.510498	480.437164
2402.792236	417.704193
2402.073975	428.077881
2401.355469	494.124146
2400.636963	497.523773
2399.918213	480.050537
2399.199463	455.626770
2398.480469	445.120880
2397.761475	469.387817
2397.042480	479.741364
2396.323242	462.284973
2395.603760	434.408356
2394.884277	469.085449
2394.164795	517.647949
2393.445068	489.775848
2392.725098	430.655457
2392.005127	465.310760
2391.285156	472.179596
2390.564941	433.918671
2389.844727	437.319550
2389.124268	468.481140
2388.403809	381.663849
2387.683105	496.083038
2386.962402	454.380432
2386.241455	492.455109
2385.520508	447.299072
2384.799316	450.693848
2384.078125	440.222229
2383.356689	464.411560
2382.635254	474.732269
2381.913818	505.837494
2381.192139	471.115082
2380.470215	477.966156
2379.748291	488.277954
2379.026367	446.650330
2378.304199	450.040161
2377.581787	463.812714
2376.859375	498.345184
2376.136963	453.282562
2375.414307	508.563263
2374.691650	470.431580
2373.968750	456.521698
2373.245850	459.905945
2372.522705	407.971008
2371.799316	511.609894
2371.076172	494.246002
2370.352783	483.799103
2369.629150	532.093079
2368.905518	480.188324
2368.181641	462.840637
2367.457764	493.847229
2366.733643	486.861633
2366.009521	490.235413
2365.285400	490.156250
2364.561035	496.979584
2363.836426	452.040375
2363.111816	469.218018
2362.387207	500.188416
2361.662354	479.413544
2360.937256	513.820679
2360.212158	493.050293
2359.487061	503.312683
2358.761719	492.890991
2358.036377	454.902802
2357.310791	496.177429
2356.584961	451.310699
2355.859375	575.242065
2355.133301	564.817078
2354.407471	485.526428
2353.681152	499.219543
2352.955078	454.388489
2352.228516	478.407501
2351.502197	468.006500
2350.775635	536.744202
2350.048828	505.696411
2349.322021	515.933350
2348.594971	488.337921
2347.867920	467.628296
2347.140869	477.866364
2346.413330	494.975739
2345.686035	536.137024
2344.958496	491.379425
2344.230713	532.527954
2343.502930	511.831146
2342.775146	511.748352
2342.047119	436.117645
2341.319092	528.750000
2340.590820	494.335602
2339.862305	525.146606
2339.133789	507.902771
2338.405273	524.976685
2337.676514	497.446411
2336.947754	507.656219
2336.218750	528.151428
2335.489746	480.059937
2334.760498	442.269348
2334.031250	558.745972
2333.301758	541.518860
2332.572266	483.175964
2331.842529	548.195984
2331.112793	524.127563
2330.382813	524.042725
2329.652832	537.656067
2328.922607	469.088898
2328.192383	551.175781
2327.462158	537.394897
2326.731689	530.463196
2326.000977	526.955505
2325.270264	550.818787
2324.539307	574.674316
2323.808350	519.859192
2323.077393	564.229431
2322.346191	526.528809
2321.614746	516.188110
2320.883301	550.283569
2320.151855	502.351410
2319.420166	543.271606
2318.688232	512.437317
2317.956299	549.926941
2317.224365	529.346985
2316.492188	529.261169
2315.760010	587.213928
2315.027588	474.473877
2314.295166	491.461609
2313.562500	491.381927
2312.829590	535.655945
2312.096924	508.278931
2311.363770	538.892944
2310.630615	542.215698
2309.897461	535.308533
2309.164063	596.584717
2308.430664	538.543457
2307.697021	555.495850
2306.963379	538.368713
2306.229492	517.840332
2305.495605	548.412964
2304.761719	606.221558
2304.027344	527.803894
2303.293213	602.620178
2302.558838	524.228516
2301.824219	633.056396
2301.089600	547.879211
2300.354736	554.595154
2299.619873	547.701416
2298.885010	557.816467
2298.149658	540.722046
2297.414551	567.835999
2296.679199	537.146851
2295.943604	567.651672
2295.208008	560.762390
2294.472412	482.517120
2293.736572	523.208252
2293.000488	570.679932
2292.264404	553.605530
2291.528320	556.911377
2290.791992	543.239929
2290.055420	509.204712
2289.318848	573.610779
2288.582275	583.698425
2287.845459	485.205292
2287.108398	539.406372
2286.371582	518.967041
2285.634277	583.319153
2284.896973	617.132751
2284.159668	586.519897
2283.422119	576.255371
2282.684570	542.269836
2281.946777	586.233948
2281.208740	589.526733
2280.470703	589.430908
2279.732666	569.013184
2278.994385	562.147827
2278.256104	565.442322
2277.517578	592.433044
2276.779053	595.721497
2276.040283	585.471924
2275.301514	622.597168
2274.562500	619.112793
2273.823486	558.125671
2273.084229	578.327087
2272.344971	635.718140
2271.605469	588.281738
2270.865967	581.425293
2270.126221	611.749146
2269.386475	645.442444
2268.646484	604.792664
2267.906494	618.206970
2267.166260	611.351074
2266.426025	574.103699
2265.685547	584.139893
2264.945068	617.804626
2264.204346	631.205811
2263.463623	546.731018
2262.722656	583.759644
2261.981689	620.776245
2261.240723	603.809021
2260.499268	580.101929
2259.758057	630.589539
2259.016602	623.743652
2258.274902	603.415833
2257.533203	599.947083
2256.791260	603.219360
2256.049316	619.968079
2255.307129	603.022888
2254.564941	562.505127
2253.822754	612.929626
2253.080322	562.321838
2252.337646	629.563232
2251.594971	619.362366
2250.852051	565.412598
2250.109131	582.145508
2249.366211	592.143982
2248.623047	595.411377
2247.879639	551.590698
2247.136230	652.385071
2246.392578	578.309021
2245.648926	608.470154
2244.905273	574.759338
2244.161377	554.501892
2243.417236	564.491699
2242.673096	561.040161
2241.928955	597.897400
2241.184570	574.290955
2240.439941	597.702454
2239.695313	617.748962
2238.950439	614.291443
2238.205566	630.972412
2237.460693	593.956909
2236.715576	617.346008
2235.970215	566.926392
2235.224854	603.728455
2234.479492	613.690430
2233.733887	586.766663
2232.988037	636.957031
2232.242188	593.278931
2231.496338	613.289978
2230.750244	609.839172
2230.003906	616.440063
2229.257568	602.940735
2228.511230	599.493225
2227.764648	646.275452
2227.017822	555.773132
2226.270996	612.589600
2225.523926	609.142639
2224.776855	562.193726
2224.029785	642.402222
2223.282471	592.117859
2222.534912	575.297363
2221.787354	658.808594
2221.039795	585.140442
2220.291992	608.446716
2219.543945	584.949341
2218.795898	651.694214
2218.047852	614.831543
2217.299561	591.344604
2216.551025	624.651794
2215.802490	601.170898
2215.053955	617.769104
2214.305176	580.941956
2213.556152	624.243652
2212.807129	600.778015
2212.058105	624.039612
2211.308838	647.293579
2210.559326	603.819519
2209.809814	630.404602
2209.060303	626.966614
2208.310547	633.532898
2207.560547	616.760132
2206.810547	629.992432
2206.060303	599.894714
2205.310059	616.457642
2204.559814	626.351807
2203.809326	652.898254
2203.058594	682.766602
2202.307861	572.764160
2201.557129	632.601074
2200.806152	675.773743
2200.054932	612.423767
2199.303711	632.290649
2198.552246	655.478333
2197.800781	658.697815
2197.049316	635.306580
2196.297607	658.482300
2195.545654	621.798157
2194.793701	608.398071
2194.041504	624.918701
2193.289307	668.021790
2192.537109	641.328857
2191.784668	681.092712
2191.031982	671.015625
2190.279297	611.122070
2189.526367	650.871277
2188.773438	627.523132
2188.020508	637.379456
2187.267090	647.232483
2186.513916	676.993835
2185.760498	637.066345
2185.006836	633.644470
2184.253174	703.197021
2183.499268	640.069763
2182.745361	620.069641
2181.991211	623.283386
2181.237061	623.181274
2180.482666	629.707703
2179.728271	719.074585
2178.973877	632.814514
2178.218994	622.772949
2177.464355	635.919189
2176.709229	668.930298
2175.954346	609.222778
2175.198975	619.054321
2174.443848	668.601440
2173.688232	694.966736
2172.932861	628.676392
2172.177002	635.189880
2171.421387	744.241089
2170.665283	628.367188
2169.909424	677.863953
2169.153076	644.691650
2168.396729	634.669250
2167.640381	654.395325
2166.883789	637.765564
2166.127197	670.700378
2165.370361	667.286926
2164.613525	627.543152
2163.856445	643.951782
2163.099365	640.544373
2162.342041	653.644226
2161.584473	663.439026
2160.826904	594.027039
2160.069336	656.622070
2159.311523	696.103149
2158.553711	643.212463
2157.795654	715.662537
2157.037354	646.298767
2156.279053	662.677185
2155.520752	669.161133
2154.762207	728.376038
2154.003662	659.055603
2153.244873	675.421082
2152.485840	672.015930
2151.726807	658.730957
2150.967773	655.329712
2150.208252	681.562622
2149.448975	691.326782
2148.689453	658.298340
2147.929688	671.354004
2147.169922	671.243713
2146.410156	697.452393
2145.650146	664.444519
2144.889893	700.512024
2144.129639	729.991150
2143.369141	687.130981
2142.608643	716.602600
2141.847900	726.344727
2141.087158	667.075745
2140.326416	640.681702
2139.565186	709.561584
2138.804199	702.875977
2138.042725	686.340820
2137.281494	709.211670
2136.519775	666.418091
2135.758301	666.308472
2134.996338	649.790100
2134.234619	659.526917
2133.472412	695.506042
2132.710449	633.068848
2131.947998	754.310242
2131.185547	691.883850
2130.423096	740.947998
2129.660400	681.822266
2128.897705	717.762085
2128.134766	714.367065
2127.371826	668.380310
2126.608643	727.235352
2125.845215	700.913330
2125.081787	759.743591
2124.318359	690.859985
2123.554688	631.820068
2122.790771	657.901184
2122.026855	697.064148
2121.262939	762.390625
2120.498779	667.390930
2119.734375	713.074890
2118.969971	739.121033
2118.205322	647.441895
2117.440674	699.645203
2116.676025	709.336487
2115.911133	689.609924
2115.145996	807.135559
2114.380859	659.977844
2113.615479	715.402710
2112.850098	676.091187
2112.084473	734.760620
2111.318848	747.699829
2110.552979	688.815186
2109.787109	714.813599
2109.020996	721.222717
2108.254883	662.371460
2107.488525	740.559326
2106.722168	678.462341
2105.955566	746.837830
2105.188965	717.367859
2104.422119	681.387146
2103.655029	691.053894
2102.887939	743.086426
2102.120850	755.998352
2101.353516	733.067200
2100.585938	798.097107
2099.818359	742.596497
2099.050781	729.448181
2098.282959	673.977112
2097.514893	703.164429
2096.746826	768.145569
2095.978760	764.764526
2095.210449	735.354370
2094.441895	712.460388
2093.673340	744.869934
2092.904541	744.747009
2092.135742	721.862732
2091.366699	757.505676
2090.597656	669.615540
2089.828369	767.005798
2089.059082	727.885315
2088.289551	714.769409
2087.520020	734.141907
2086.750244	721.029236
2085.980469	782.609741
2085.210449	805.208191
2084.440186	704.440857
2083.670166	691.341614
2082.899658	743.150635
2082.129150	739.783264
2081.358643	739.661133
2080.587891	759.000549
2079.816895	716.715454
2079.045898	729.567200
2078.274902	752.140564
2077.503662	739.050537
2076.732178	794.023987
2075.960693	829.536987
2075.188965	725.724976
2074.417236	809.827087
2073.645264	774.066772
2072.873291	770.700623
2072.101074	786.761780
2071.328857	695.991028
2070.556396	767.081970
2069.783936	741.066406
2069.011230	757.121704
2068.238525	782.876770
2067.465576	740.698975
2066.692627	724.406677
2065.919434	821.289673
2065.145996	730.632996
2064.372559	824.250427
2063.599121	730.391357
2062.825439	827.209167
2062.051514	772.149597
2061.277588	746.180115
2060.503662	733.138000
2059.729248	745.933289
2058.955078	684.466248
2058.180664	794.107727
2057.406006	729.425476
2056.631348	800.299011
2055.856445	813.072510
2055.081543	787.130432
2054.306396	780.549377
2053.531250	751.396301
2052.755859	818.983154
2051.980225	741.476196
2051.204590	776.809448
2050.428955	760.567200
2049.653076	737.885803
2048.877197	831.192261
2048.101074	802.064331
2047.324707	743.960571
2046.548340	730.957092
2045.771851	820.983276
2044.995239	817.628296
2044.218506	798.182007
2043.441528	762.652466
2042.664551	733.569458
2041.887329	871.773621
2041.110107	697.946655
2040.332642	768.578857
2039.555176	774.882080
2038.777466	874.410828
2037.999634	736.054810
2037.221802	832.343262
2036.443726	832.205322
2035.665527	796.728638
2034.887207	803.020752
2034.108765	854.272461
2033.330200	818.809692
2032.551514	799.411011
2031.772705	786.438721
2030.993774	763.842346
2030.214600	766.924622
2029.435425	760.380737
2028.656128	753.838989
2027.876587	808.237976
2027.097046	814.517456
2026.317261	852.857178
2025.537476	762.956177
2024.757446	756.419250
2023.977295	878.069946
2023.197021	829.862732
2022.416626	807.300049
2021.636230	791.150940
2020.855591	807.032227
2020.074707	790.888428
2019.293823	832.375977
2018.512817	809.831421
2017.731689	825.698975
2016.950439	851.160767
2016.168945	783.833740
2015.387451	809.293945
2014.605713	793.168274
2013.823975	793.036621
2013.041992	847.257324
2012.260010	818.346680
2011.477783	783.053284
2010.695435	776.532043
2009.912964	891.425781
2009.130371	868.915955
2008.347656	808.085388
2007.564819	820.725098
2006.781860	826.974670
2005.998779	807.682800
2005.215576	804.356750
2004.432129	868.050293
2003.648682	874.287781
2002.864990	858.190979
2002.081299	880.376770
2001.297363	790.931763
2000.513428	838.630981
1999.729248	895.878845
1998.944946	844.727539
1998.160522	803.154602
1997.375977	825.327209
1996.591309	802.887573
1995.806519	856.908142
1995.021606	799.435669
1994.236572	840.700867
1993.451416	805.537720
1992.666016	849.971558
1991.880615	818.001404
1991.094971	779.677063
1990.309326	760.456482
1989.523438	852.587585
1988.737549	830.180420
1987.951416	810.960876
1987.165161	814.005676
1986.378784	848.841248
1985.592285	797.841614
1984.805664	959.793091
1984.018921	870.660767
1983.232056	813.328735
1982.444946	841.782166
1981.657837	844.818115
1980.870605	879.607788
1980.083130	882.636292
1979.295654	863.442871
1978.507935	888.690247
1977.720093	818.728271
1976.932129	866.184509
1976.144165	923.141846
1975.355957	831.006531
1974.567627	868.923157
1973.779053	821.217590
1972.990479	849.612610
1972.201782	852.640747
1971.412964	808.130798
1970.623901	820.670654
1969.834839	906.072205
1969.045532	896.418579
1968.256226	877.267090
1967.466675	804.291382
1966.677002	892.804626
1965.887207	864.166870
1965.097290	851.363159
1964.307251	898.687134
1963.517090	838.423950
1962.726807	945.837646
1961.936401	869.772583
1961.145874	910.737244
1960.355103	901.100159
1959.564331	913.594849
1958.773315	790.175232
1957.982178	875.368164
1957.191040	846.785339
1956.399658	963.531616
1955.608154	884.406067
1954.816528	877.942444
1954.024780	862.008301
1953.232910	902.905701
1952.440918	871.190247
1951.648682	836.329346
1950.856445	833.034363
1950.063965	889.683716
1949.271484	927.387878
1948.478760	920.925415
1947.685913	876.625122
1946.893066	911.159668
1946.099976	870.028015
1945.306763	898.248535
1944.513428	894.947388
1943.719971	913.702209
1942.926270	885.198120
1942.132568	925.995728
1941.338745	888.051697
1940.544678	887.903442
1939.750610	919.235840
1938.956299	875.016785
1938.161865	859.135559
1937.367310	937.654358
1936.572632	890.308289
1935.777832	993.959106
1934.982910	883.721069
1934.187866	911.872925
1933.392700	911.720581
1932.597290	908.424927
1931.801880	895.701904
1931.006226	939.544312
1930.210571	911.111450
1929.414673	907.817932
1928.618652	970.480469
1927.822510	913.794922
1927.026245	919.921509
1926.229858	904.072021
1925.433350	966.693176
1924.636719	944.564941
1923.839844	903.618713
1923.042969	868.960205
1922.245850	925.272156
1921.448730	900.029541
1920.651367	956.317444
1919.853882	968.697266
1919.056274	927.787842
1918.258545	955.837708
1917.460693	914.943970
1916.662720	930.455200
1915.864624	933.431824
1915.066284	920.748474
1914.267944	898.675537
1913.469360	873.479187
1912.670776	979.760681
1911.871948	948.299744
1911.072998	979.432800
1910.273926	922.953125
1909.474731	944.695557
1908.675415	944.537415
1907.875977	997.539734
1907.076294	978.613403
1906.276611	906.550720
1905.476807	890.771362
1904.676758	909.372131
1903.876587	921.717773
1903.076294	930.935242
1902.275879	962.013550
1901.475342	986.835632
1900.674683	930.467590
1899.873901	933.433594
1899.072998	1001.946472
1898.271851	951.845764
1897.470703	942.325439
1896.669312	948.407104
1895.867920	960.725098
1895.066284	969.920288
1894.264526	985.348694
1893.462646	985.183594
1892.660645	975.667053
1891.858521	953.687134
1891.056152	937.946777
1890.253784	947.136292
1889.451172	894.021545
1888.648560	921.902527
1887.845703	909.291870
1887.042725	1039.906006
1886.239624	952.568542
1885.436401	977.308411
1884.633057	914.906006
1883.829590	961.423645
1883.025879	936.375305
1882.222168	998.425476
1881.418213	954.720276
1880.614258	998.090515
1879.810059	966.835144
1879.005737	1007.080505
1878.201294	957.187500
1877.396729	960.134155
1876.592041	1019.000488
1875.787231	981.555237
1874.982178	934.805542
1874.177124	925.333191
1873.371826	962.433350
1872.566406	974.688232
1871.760986	937.281616
1870.955322	927.815125
1870.149536	971.094910
1869.343506	1026.768188
1868.537476	1066.915283
1867.731323	986.110718
1866.924927	1007.648315
1866.118530	960.980042
1865.311890	954.619812
1864.505127	917.272766
1863.698242	1028.660156
1862.891235	944.845276
1862.084106	1022.119873
1861.276855	1000.270508
1860.469482	984.620972
1859.661865	1024.700562
1858.854126	1040.004639
1858.046387	1030.545654
1857.238403	1036.560913
1856.430298	1030.199341
1855.622070	989.814941
1854.813721	968.000000
1854.005249	955.468750
1853.196533	1004.773926
1852.387817	1041.698120
1851.578857	995.164368
1850.769775	1010.447327
1849.960693	973.203003
1849.151367	1040.997681
1848.341919	1037.734131
1847.532227	1090.055176
1846.722534	1025.035278
1845.912720	1083.514648
1845.102661	1006.171936
1844.292603	1012.174438
1843.482300	1005.833435
1842.671875	984.070190
1841.861328	1033.254028
1841.050659	1014.577271
1840.239868	995.906677
1839.428833	1035.815308
1838.617798	1032.558716
1837.806519	961.504761
1836.995117	1090.754517
1836.183716	1022.795288
1835.372070	982.580627
1834.560303	1016.291565
1833.748291	1108.495117
1832.936279	1086.757935
1832.124146	1077.340576
1831.311768	1083.314453
1830.499390	932.355103
1829.686768	1055.260498
1828.874023	975.105652
1828.061157	1122.566650
1827.248169	1014.752258
1826.434937	1048.400757
1825.621704	1008.262451
1824.808228	1075.708496
1823.994751	1090.891968
1823.181030	1059.984009
1822.367188	1041.374023
1821.553223	1038.127075
1820.739136	1108.582031
1819.924927	1071.551025
1819.110474	1037.602295
1818.296021	991.387695
1817.481323	1086.353149
1816.666626	1037.077637
1815.851685	1049.173828
1815.036621	1042.862427
1814.221436	990.552246
1813.406006	1097.702515
1812.590576	1100.583008
1811.774902	1078.941162
1810.959229	1109.405762
1810.143311	1057.128296
1809.327271	1041.631836
1808.511108	1026.140625
1807.694824	1029.030029
1806.878418	1096.222046
1806.061768	1053.175293
1805.245117	1080.546997
1804.428223	1009.972595
1803.611206	994.502136
1802.794067	1027.988647
1801.976807	975.812622
1801.159424	1021.524780
1800.341919	1079.453247
1799.524170	1057.869019
1798.706421	1100.487183
1797.888428	1069.737427
1797.070313	1051.221558
1796.252075	1063.265503
1795.433716	998.934204
1794.615234	1105.666992
1793.796509	1074.942139
1792.977783	1120.560059
1792.158813	1086.790161
1791.339844	1086.606567
1790.520630	1046.750244
1789.701294	1110.649292
1788.881714	1070.802368
1788.062134	1061.470825
1787.242432	1091.788330
1786.422485	1137.341431
1785.602417	1085.322021
1784.782349	1042.464600
1783.962036	1145.907715
1783.141479	1075.630493
1782.320923	1112.007813
1781.500244	1111.819824
1780.679321	1059.857178
1779.858398	1062.723145
1779.037231	1004.697205
1778.215942	1104.980103
1777.394531	1083.488647
1776.572998	1208.068115
1775.751221	1125.716919
1774.929443	1137.694336
1774.107422	1113.170288
1773.285278	1103.859253
1772.463013	1100.632080
1771.640625	1085.246338
1770.818115	1094.180908
1769.995483	1148.695557
1769.172607	1075.580444
1768.349731	1124.004028
1767.526611	1087.365723
1766.703369	1172.212646
1765.880005	1053.598389
1765.056519	1114.135864
1764.232910	1123.053101
1763.409058	1104.654419
1762.585083	1116.604370
1761.761108	1067.875488
1760.936890	1091.960449
1760.112549	1125.135376
1759.288086	1127.977051
1758.463379	1109.595947
1757.638672	1085.158691
1756.813721	1081.944214
1755.988647	1136.303467
1755.163574	1108.844360
1754.338257	1090.481812
1753.512695	1147.840576
1752.687134	1190.039307
1751.861328	1195.892822
1751.035522	1104.878296
1750.209473	1119.823730
1749.383301	1089.373657
1748.557007	1125.495239
1747.730591	1146.479614
1746.903931	1116.040283
1746.077271	1182.378784
1745.250366	1115.661865
1744.423340	1148.725342
1743.596313	1202.934692
1742.768921	1145.313843
1741.941528	1157.205322
1741.114014	1093.569946
1740.286255	1141.710938
1739.458374	1144.537109
1738.630493	1120.187988
1737.802368	1107.922607
1736.973999	1134.899780
1736.145630	1149.796387
1735.317139	1158.653320
1734.488403	1128.288574
1733.659546	1116.031982
1732.830566	1185.205811
1732.001465	1088.515747
1731.172241	1169.729736
1730.342896	1193.645142
1729.513306	1166.318848
1728.683594	1202.279663
1727.853882	1202.075562
1727.023926	1153.676147
1726.193726	1198.655762
1725.363525	1162.317993
1724.533203	1165.131348
1723.702637	1113.760742
1722.871948	1158.716309
1722.041138	1197.638428
1721.210205	1158.322754
1720.379150	1191.215332
1719.547974	1169.959717
1718.716553	1109.619019
1717.885010	1106.423950
1717.053467	1157.339233
1716.221558	1175.176025
1715.389648	1147.930786
1714.557617	1156.749390
1713.725342	1210.625366
1712.893066	1240.454834
1712.060547	1207.210938
1711.227905	1158.965698
1710.395142	1227.814453
1709.562256	1188.586426
1708.729126	1149.371826
1707.895874	1203.184692
1707.062622	1148.980957
1706.229126	1103.793945
1705.395508	1184.577393
1704.561646	1157.390137
1703.727783	1205.159912
1702.893677	1198.960083
1702.059570	1243.709473
1701.225220	1165.592041
1700.390747	1174.381348
1699.556030	1258.051758
1698.721313	1173.981812
1697.886353	1197.736816
1697.051392	1197.532959
1696.216187	1287.128906
1695.380859	1262.967285
1694.545410	1247.790894
1693.709717	1241.594849
1692.874023	1202.496826
1692.038086	1268.089233
1691.202026	1223.019287
1690.365845	1219.821289
1689.529541	1204.667358
1688.692993	1174.574829
1687.856445	1168.398438
1687.019653	1150.273071
1686.182739	1242.680786
1685.345703	1257.402710
1684.508545	1239.271362
1683.671143	1224.131836
1682.833740	1167.204834
1681.996094	1244.607422
1681.158325	1130.997192
1680.320435	1244.183350
1679.482422	1217.123047
1678.644287	1249.724609
1677.805908	1189.869141
1676.967407	1147.923584
1676.128784	1210.331299
1675.290039	1272.717651
1674.451172	1203.958496
1673.612183	1275.263428
1672.772949	1194.610840
1671.933594	1221.214355
1671.094116	1262.698975
1670.254517	1220.797852
1669.414795	1229.520874
1668.574829	1196.569214
1667.734863	1232.077515
1666.894653	1276.500244
1666.054321	1219.757202
1665.213867	1234.421631
1664.373169	1246.107056
1663.532471	1287.523438
1662.691528	1254.600952
1661.850464	1221.689575
1661.009277	1203.649170
1660.167969	1173.729126
1659.326538	1247.802856
1658.484863	1292.146606
1657.643066	1220.647461
1656.801147	1229.347412
1655.959106	1270.702515
1655.116943	1306.106689
1654.274658	1288.076172
1653.432129	1284.888916
1652.589478	1222.364502
1651.746704	1245.886963
1650.903809	1245.674194
1650.060791	1230.634521
1649.217529	1239.318970
1648.374146	1224.285400
1647.530640	1292.245117
1646.687012	1283.134399
1645.843262	1235.509521
1644.999390	1253.072510
1644.155273	1211.392578
1643.311035	1243.760254
1642.466675	1267.234375
1641.622192	1237.414551
1640.777588	1172.087158
1639.932739	1284.340576
1639.087769	1213.109741
1638.242798	1289.818115
1637.397461	1236.357422
1636.552124	1271.633423
1635.706665	1247.761841
1634.860962	1303.717651
1634.015137	1268.025513
1633.169189	1253.032349
1632.323120	1226.225220
1631.476929	1285.100586
1630.630493	1252.389526
1629.783936	1328.959595
1628.937256	1319.874146
1628.090454	1352.122803
1627.243530	1298.760376
1626.396484	1236.562500
1625.549194	1259.956665
1624.701782	1309.894653
1623.854248	1345.067017
1623.006592	1279.954346
1622.158691	1223.709961
1621.310791	1258.878906
1620.462646	1317.617188
1619.614380	1279.078247
1618.765991	1355.472900
1617.917358	1343.456177
1617.068726	1254.855957
1616.219849	1275.257324
1615.370850	1366.323486
1614.521729	1321.927124
1613.672363	1342.306274
1612.822998	1294.985962
1611.973389	1318.305298
1611.123657	1379.864380
1610.273804	1382.569702
1609.423828	1305.863403
1608.573608	1414.442871
1607.723389	1355.398071
1606.872925	1302.252563
1606.022339	1363.750854
1605.171509	1392.903320
1604.320679	1348.592896
1603.469604	1318.985718
1602.618408	1262.954590
1601.767090	1327.343384
1600.915649	1344.732422
1600.064087	1291.661133
1599.212280	1329.595825
1598.360352	1402.732544
1597.508301	1402.491943
1596.656128	1340.646240
1595.803833	1270.022461
1594.951294	1278.602417
1594.098633	1342.888672
1593.245850	1345.589844
1592.392944	1371.738647
1591.539795	1362.711548
1590.686646	1347.827515
1589.833252	1400.328247
1588.979736	1379.584595
1588.126099	1323.705322
1587.272217	1379.111084
1586.418335	1352.526489
1585.564209	1317.169800
1584.709961	1384.254150
1583.855591	1334.273926
1583.000977	1351.598022
1582.146362	1348.441040
1581.291504	1356.983032
1580.436523	1383.066284
1579.581421	1382.828857
1578.726074	1370.899292
1577.870605	1361.896240
1577.015137	1364.584351
1576.159424	1361.428467
1575.303467	1308.616211
1574.447510	1258.742676
1573.591309	1354.886963
1572.734985	1302.102905
1571.878540	1369.016479
1571.021973	1336.677612
1570.165161	1394.808105
1569.308350	1379.980835
1568.451294	1330.154541
1567.594116	1359.090942
1566.736694	1355.941284
1565.879272	1376.116821
1565.021606	1387.540161
1564.163818	1369.814697
1563.305908	1355.009155
1562.447876	1415.959595
1561.589600	1430.281128
1560.731201	1383.435181
1559.872681	1438.525146
1559.014038	1382.959351
1558.155273	1406.009399
1557.296265	1385.394165
1556.437134	1434.625732
1555.577881	1431.469360
1554.718506	1396.315186
1553.859009	1445.519287
1552.999268	1407.466675
1552.139404	1378.149658
1551.279419	1473.843018
1550.419312	1424.179077
1549.558960	1455.899902
1548.698608	1423.688843
1547.838013	1458.303711
1546.977173	1431.912231
1546.116333	1422.953735
1545.255249	1460.454102
1544.394165	1500.844482
1543.532837	1459.951172
1542.671265	1558.367310
1541.809692	1636.439087
1540.947876	1456.296021
1540.085938	1577.865723
1539.223877	1560.193970
1538.361694	1716.497559
1537.499268	1646.626099
1536.636841	1779.672974
1535.774170	1773.570435
1534.911377	1784.854736
1534.048340	1935.190796
1533.185303	2123.129395
1532.322021	2186.475342
1531.458618	2481.438721
1530.594971	2808.145508
1529.731323	3004.487305
1528.867432	3391.764893
1528.003418	3495.346191
1527.139282	3520.780518
1526.275024	3612.733398
1525.410522	3195.662109
1524.545898	2827.890137
1523.681152	2489.155029
1522.816284	2176.551025
1521.951172	2002.775146
1521.086060	1800.164063
1520.220703	1724.739258
1519.355225	1554.019531
1518.489502	1579.743530
1517.623779	1492.845459
1516.757813	1527.232056
1515.891724	1521.195435
1515.025513	1454.554443
1514.159058	1514.899414
1513.292480	1442.512329
1512.425781	1367.265625
1511.558960	1442.014404
1510.692017	1398.512451
1509.824829	1395.388062
1508.957520	1449.915283
1508.090088	1420.844482
1507.222534	1492.637695
1506.354736	1469.331543
1505.486938	1463.316772
1504.618896	1416.983276
1503.750610	1436.895386
1502.882324	1344.517456
1502.013794	1410.491943
1501.145142	1436.150757
1500.276367	1386.984131
1499.407471	1383.867432
1498.538330	1449.789307
1497.669067	1392.017456
1496.799683	1466.541748
1495.930176	1405.911621
1495.060547	1437.289063
1494.190674	1385.307129
1493.320679	1367.826172
1492.450562	1370.462769
1491.580200	1473.639160
1490.709717	1407.326172
1489.839233	1395.596436
1488.968384	1398.226196
1488.097534	1435.302246
1487.226440	1466.625244
1486.355347	1486.458862
1485.483887	1460.379639
1484.612427	1414.229126
1483.740845	1514.368774
1482.869019	1419.475098
1481.997070	1510.977783
1481.124878	1416.117310
1480.252686	1458.864380
1479.380249	1429.955566
1478.507690	1509.932129
1477.635010	1463.836426
1476.762207	1466.447144
1475.889160	1566.421387
1475.015991	1457.350098
1474.142700	1457.097778
1473.269165	1542.710693
1472.395630	1576.783691
1471.521851	1504.981079
1470.647949	1630.590698
1469.773804	1595.985962
1468.899658	1735.834595
1468.025269	1646.898804
1467.150757	1740.950806
1466.276001	1760.656616
1465.401245	2006.114990
1464.526245	1911.479248
1463.651123	1951.142212
1462.775879	2136.458984
1461.900391	2276.019775
1461.024780	2178.547119
1460.149048	2406.549072
1459.273193	2400.423584
1458.397217	2462.790039
1457.520996	2479.482666
1456.644653	2464.789063
1455.768188	2498.589111
1454.891479	2324.197510
1454.014648	2454.953369
1453.137695	2528.648193
1452.260620	2533.910400
1451.383423	2462.225830
1450.505981	2379.169189
1449.628418	2256.257568
1448.750732	2005.214478
1447.872803	2067.518555
1446.994873	1950.419556
1446.116699	1887.450806
1445.238403	1861.506226
1444.359863	1841.262329
1443.481201	1826.716064
1442.602417	1823.554199
1441.723511	1897.191284
1440.844482	1783.107056
1439.965210	1865.255493
1439.085815	1799.545410
1438.206299	1773.651489
1437.326538	1781.869263
1436.446777	1969.092529
1435.566772	1960.227905
1434.686646	1928.642944
1433.806274	1962.387085
1432.925781	1956.367432
1432.045166	1893.571045
1431.164429	1816.604126
1430.283569	1705.608521
1429.402466	1693.962402
1428.521240	1648.276733
1427.639893	1616.789063
1426.758301	1520.084961
1425.876709	1551.011108
1424.994873	1460.021851
1424.112793	1479.609619
1423.230713	1439.676270
1422.348389	1456.427124
1421.465942	1532.665649
1420.583374	1404.935303
1419.700562	1421.683350
1418.817627	1438.425415
1417.934570	1370.229980
1417.051392	1443.586426
1416.167969	1434.845093
1415.284546	1409.129395
1414.400757	1440.004272
1413.516968	1476.525513
1412.633057	1388.597534
1411.748901	1402.494141
1410.864624	1342.880615
1409.980103	1393.526245
1409.095459	1438.501953
1408.210815	1415.646484
1407.325806	1389.973877
1406.440796	1392.556641
1405.555542	1412.083374
1404.670166	1383.600952
1403.784668	1397.475952
1402.899048	1439.573120
1402.013184	1402.633911
1401.127197	1478.575928
1400.241089	1385.218262
1399.354736	1342.666138
1398.468262	1455.241821
1397.581665	1407.052734
1396.694946	1389.892212
1395.807983	1409.381470
1394.920898	1403.499390
1394.033691	1425.797241
1393.146362	1431.183350
1392.258789	1377.414917
1391.371094	1351.828125
1390.483276	1430.435547
1389.595337	1449.893555
1388.707153	1452.455688
1387.818848	1387.472656
1386.930420	1502.598877
1386.041748	1457.323242
1385.152954	1473.946411
1384.264038	1414.629395
1383.375000	1473.432617
1382.485718	1436.627441
1381.596313	1512.271606
1380.706787	1489.524536
1379.817139	1480.835083
1378.927246	1455.291748
1378.037231	1561.778198
1377.147095	1595.207397
1376.256714	1603.353027
1375.366333	1560.961182
1374.475586	1527.004883
1373.584839	1495.866943
1372.693970	1605.040527
1371.802856	1514.983643
1370.911499	1520.329346
1370.020142	1598.591431
1369.128540	1511.386597
1368.236816	1511.122803
1367.344971	1485.631348
1366.453003	1547.029053
1365.560791	1538.352661
1364.668457	1669.759766
1363.775879	1694.678345
1362.883301	1590.759033
1361.990479	1666.085205
1361.097534	1699.390015
1360.204346	1799.863281
1359.311035	1754.770020
1358.417603	1802.032715
1357.524048	1835.290405
1356.630249	1784.619995
1355.736450	1725.577148
1354.842285	1742.052979
1353.948120	1694.220947
1353.053711	1665.972412
1352.159180	1528.737671
1351.264526	1578.767578
1350.369751	1606.429565
1349.474731	1569.835815
1348.579590	1689.652466
1347.684204	1728.449585
1346.788818	1711.396484
1345.893188	1909.283081
1344.997314	2045.701416
1344.101440	2190.443115
1343.205322	2265.386963
1342.309082	2276.148438
1341.412720	2278.539307
1340.516113	2359.005127
1339.619385	2375.320068
1338.722534	2558.875977
1337.825439	2603.019775
1336.928223	2491.105469
1336.030884	2384.802246
1335.133423	2350.958984
1334.235718	2138.886963
1333.337891	2088.391113
1332.439941	2007.288696
1331.541870	2068.175537
1330.643555	2209.749512
1329.745117	2256.666504
1328.846436	2247.925049
1327.947754	2247.531494
1327.048828	2135.893555
1326.149780	2091.029541
1325.250488	1968.337402
1324.351074	1937.416626
1323.451538	1848.144043
1322.551880	1875.607178
1321.651978	1783.598267
1320.751953	1836.062256
1319.851807	1646.889893
1318.951416	1613.280518
1318.050903	1632.431641
1317.150269	1637.697144
1316.249512	1601.331665
1315.348511	1645.447632
1314.447388	1570.253174
1313.546021	1553.335083
1312.644653	1611.302612
1311.743042	1555.563354
1310.841309	1558.063110
1309.939331	1555.018066
1309.037231	1571.373779
1308.135010	1645.912476
1307.232666	1584.674805
1306.330078	1711.813477
1305.427368	1786.288086
1304.524536	1758.285278
1303.621460	1757.976929
1302.718262	1732.756714
1301.814941	1632.822876
1300.911499	1582.730225
1300.007813	1623.950439
1299.104004	1662.390015
1298.199951	1554.241699
1297.295898	1581.619629
1296.391602	1595.165039
1295.487061	1669.515747
1294.582520	1542.096436
1293.677734	1594.325195
1292.772827	1541.555176
1291.867676	1510.900757
1290.962402	1469.210449
1290.057007	1474.474854
1289.151489	1476.976685
1288.245728	1443.594604
1287.339844	1390.906128
1286.433838	1445.846924
1285.527588	1445.593018
1284.621216	1417.756226
1283.714722	1450.600708
1282.808105	1428.287476
1281.901245	1323.277100
1280.994263	1391.953125
1280.087036	1342.103149
1279.179810	1407.996216
1278.272217	1355.405884
1277.364624	1346.904541
1276.456787	1407.254028
1275.548828	1409.760132
1274.640747	1379.229858
1273.732544	1373.482422
1272.824097	1364.984985
1271.915405	1381.254028
1271.006714	1370.007080
1270.097778	1367.015625
1269.188721	1339.274780
1268.279541	1421.526245
1267.370117	1325.058228
1266.460571	1360.557007
1265.550781	1368.562012
1264.640991	1351.835449
1263.730957	1406.540649
1262.820679	1348.613159
1261.910400	1309.929321
1260.999878	1389.324097
1260.089233	1383.589233
1259.178345	1438.240356
1258.267334	1380.358032
1257.356201	1385.602539
1256.444824	1456.684082
1255.533447	1475.627197
1254.621704	1480.852051
1253.709961	1546.395386
1252.797974	1515.968262
1251.885864	1578.741333
1250.973633	1504.472900
1250.061157	1479.548706
1249.148560	1479.288208
1248.235840	1322.908081
1247.322876	1371.967285
1246.409790	1352.559692
1245.496582	1330.421509
1244.583130	1267.235840
1243.669556	1346.371948
1242.755859	1370.759033
1241.841919	1313.070679
1240.927856	1337.454956
1240.013672	1337.219238
1239.099365	1367.058838
1238.184814	1320.346069
1237.270142	1333.779053
1236.355225	1371.801392
1235.440186	1396.149292
1234.525024	1384.976196
1233.609741	1341.032349
1232.694214	1280.719482
1231.778564	1326.908081
1230.862671	1321.214478
1229.946777	1389.213989
1229.030640	1459.918213
1228.114258	1315.058838
1227.197876	1358.472534
1226.281128	1448.236206
1225.364380	1396.169678
1224.447388	1420.461060
1223.530273	1551.055176
1222.613037	1578.035889
1221.695557	1547.782715
1220.777954	1536.611572
1219.860229	1588.096558
1218.942261	1634.116089
1218.024170	1606.597168
1217.105957	1633.539185
1216.187500	1625.084473
1215.268921	1534.984619
1214.350220	1521.107910
1213.431274	1507.236084
1212.512207	1441.686035
1211.593018	1403.355835
1210.673706	1400.388672
1209.754150	1454.515747
1208.834351	1402.612183
1207.914551	1386.057861
1206.994507	1317.880981
1206.074219	1347.532837
1205.153931	1388.039551
1204.233398	1447.542725
1203.312744	1422.848633
1202.391846	1333.006104
1201.470825	1384.344116
1200.549683	1367.815918
1199.628296	1424.556274
1198.706787	1389.035889
1197.785156	1380.652954
1196.863281	1402.104736
1195.941284	1382.876221
1195.019165	1428.719360
1194.096802	1404.071655
1193.174438	1368.592163
1192.251709	1398.155762
1191.328979	1370.817139
1190.406006	1359.740112
1189.482788	1419.079102
1188.559570	1421.535767
1187.636108	1423.991455
1186.712402	1483.287476
1185.788696	1483.024902
1184.864746	1509.820190
1183.940552	1533.900635
1183.016357	1533.629028
1182.091919	1490.088257
1181.167236	1433.043457
1180.242554	1359.798584
1179.317505	1437.941895
1178.392456	1437.687256
1177.467163	1415.817139
1176.541748	1483.102905
1175.616211	1418.016602
1174.690430	1563.592773
1173.764526	1495.815186
1172.838501	1584.635254
1171.912231	1730.104370
1170.985840	1789.166870
1170.059204	1969.623535
1169.132446	2031.320190
1168.205566	2119.966553
1167.278564	2049.477051
1166.351318	2089.556885
1165.423828	2099.969482
1164.496338	2024.130249
1163.568604	1991.434204
1162.640747	1912.946655
1161.712646	1885.669434
1160.784424	1772.214966
1159.856079	1885.000732
1158.927490	1887.358887
1157.998779	1671.671875
1157.069946	1787.106689
1156.140869	1797.553467
1155.211670	1751.496704
1154.282349	1753.875977
1153.352783	1740.117188
1152.423096	1758.631714
1151.493164	1838.976563
1150.563232	1806.393188
1149.632935	1870.575317
1148.702637	1770.819458
1147.772095	1706.025513
1146.841431	1676.174683
1145.910522	1767.190918
1144.979492	1726.598877
1144.048340	1763.878784
1143.116943	1884.357788
1142.185425	2004.793945
1141.253784	2009.804565
1140.321899	1859.208618
1139.389893	1665.748169
1138.457764	1555.494995
1137.525391	1485.501953
1136.592896	1423.576538
1135.660278	1372.395020
1134.727417	1436.470703
1133.794434	1479.087646
1132.861206	1352.910400
1131.927856	1355.348511
1130.994385	1331.005005
1130.060669	1357.544434
1129.126831	1343.917480
1128.192871	1367.768555
1127.258667	1378.230103
1126.324341	1281.659912
1125.389893	1305.509033
1124.455200	1251.781982
1123.520386	1297.021973
1122.585327	1270.053467
1121.650146	1291.214111
1120.714844	1261.583252
1119.779297	1301.444336
1118.843628	1301.212891
1117.907837	1282.281494
1116.971802	1255.343872
1116.035645	1204.381714
1115.099365	1209.507324
1114.162842	1265.352051
1113.226196	1270.464966
1112.289307	1251.558838
1111.352417	1296.693726
1110.415161	1331.141968
1109.477905	1280.229370
1108.540405	1362.668213
1107.602661	1285.105957
1106.664917	1335.525879
1105.726807	1391.258179
1104.788696	1361.697998
1103.850342	1361.455566
1102.911865	1323.919556
1101.973145	1358.307251
1101.034302	1310.133667
1100.095337	1309.900269
1099.156128	1341.609985
1098.216797	1234.912964
1097.277344	1282.590576
1096.337646	1231.812500
1095.397827	1215.632813
1094.457764	1239.352173
1093.517700	1244.449463
1092.577271	1225.617432
1091.636841	1262.612793
1090.696167	1225.180542
1089.755249	1243.562500
1088.814209	1331.012207
1087.873047	1197.963013
1086.931763	1285.389648
1085.990234	1282.505127
1085.048584	1261.037964
1084.106689	1205.071777
1083.164673	1228.741699
1082.222412	1223.215820
1081.280151	1228.303467
1080.337524	1182.992676
1079.394897	1217.257324
1078.452026	1299.236694
1077.509033	1238.031250
1076.565796	1195.401367
1075.622437	1221.688965
1074.678955	1205.573242
1073.735229	1298.077881
1072.791382	1202.494263
1071.847290	1236.706055
1070.903076	1255.019409
1069.958740	1265.384277
1069.014160	1281.039063
1068.069458	1219.945313
1067.124512	1272.644043
1066.179565	1235.381836
1065.234253	1285.413940
1064.288940	1229.651733
1063.343384	1279.666992
1062.397583	1234.499390
1061.451660	1263.351807
1060.505615	1302.764038
1059.559448	1220.627686
1058.613037	1244.183716
1057.666382	1251.884766
1056.719727	1243.739136
1055.772827	1256.717651
1054.825684	1290.808960
1053.878418	1309.052856
1052.931030	1200.630127
1051.983398	1303.308350
1051.035645	1313.626465
1050.087769	1234.271606
1049.139648	1292.061890
1048.191406	1254.921387
1047.242920	1265.240601
1046.294312	1299.275146
1045.345581	1304.312744
1044.396606	1401.556030
1043.447510	1351.258667
1042.498291	1345.749878
1041.548828	1453.465820
1040.599121	1400.553345
1039.649414	1363.452637
1038.699341	1386.893799
1037.749268	1323.496582
1036.798950	1389.028076
1035.848511	1391.409790
1034.897827	1409.569214
1033.947021	1438.239502
1032.996094	1359.116455
1032.044922	1298.420288
1031.093506	1319.211182
1030.142090	1297.955322
1029.190430	1245.183594
1028.238525	1286.984497
1027.286499	1255.241699
1026.334351	1255.016846
1025.381958	1233.791382
1024.429443	1238.819580
1023.476807	1246.470093
1022.523926	1282.978149
1021.570923	1219.791382
1020.617737	1125.154175
1019.664368	1342.600708
1018.710815	1213.892090
1017.757080	1237.266479
1016.803223	1226.561279
1015.849121	1244.684082
1014.894897	1213.021973
1013.940491	1241.618408
1012.985962	1291.156372
1012.031189	1199.277100
1011.076294	1235.714600
1010.121216	1293.079468
1009.165955	1339.955322
1008.210510	1308.315430
1007.254944	1329.010132
1006.299133	1328.771729
1005.343201	1299.765869
1004.387085	1270.770386
1003.430786	1341.128052
1002.474365	1369.639404
1001.517700	1290.993164
1000.560913	1314.277344
999.603943	1397.638550
998.646790	1350.372803
997.689514	1352.741821
996.731995	1378.609009
995.774353	1286.992920
994.816528	1354.623535
993.858521	1281.311646
992.900330	1294.127197
991.942017	1236.504272
990.983459	1228.457642
990.024780	1194.336548
989.065918	1277.554199
988.106873	1193.907593
987.147705	1245.819458
986.188293	1245.595581
985.228760	1193.264160
984.269043	1307.665894
983.309143	1237.110962
982.349060	1270.740356
981.388794	1244.476807
980.428406	1246.856201
979.467834	1348.132446
978.507019	1368.706909
977.546082	1459.518188
976.585022	1584.111816
975.623718	1638.441772
974.662292	1861.767212
973.700623	1908.228149
972.738831	1978.066040
971.776855	1930.931396
970.814758	1850.034790
969.852417	1761.373535
968.889954	1672.744141
967.927246	1524.416382
966.964417	1430.668335
966.001404	1391.470459
965.038208	1357.477783
964.074890	1318.307129
963.111328	1310.286011
962.147644	1302.267700
961.183777	1340.938721
960.219727	1229.188599
959.255493	1249.709473
958.291077	1226.153809
957.326538	1272.585938
956.361755	1236.077759
955.396851	1305.809204
954.431763	1225.270874
953.466492	1274.259399
952.501038	1250.724487
951.535461	1250.499146
950.569641	1270.982422
949.603699	1242.284424
948.637573	1309.338867
947.671265	1228.901001
946.704773	1143.318726
945.738098	1256.906616
944.771240	1233.408325
943.804260	1290.062500
942.837097	1269.151367
941.869751	1281.844360
940.902222	1253.190430
939.934509	1255.547974
938.966614	1317.312744
937.998535	1373.890259
937.030334	1283.271240
936.061951	1221.082275
935.093323	1272.484131
934.124573	1205.157959
933.155640	1248.803589
932.186584	1209.882690
931.217285	1199.347412
930.247864	1134.661621
929.278198	1191.179810
928.308411	1172.919922
927.338440	1136.624878
926.368286	1141.573608
925.397949	1226.390503
924.427429	1141.161621
923.456787	1182.163940
922.485901	1220.576416
921.514893	1119.947021
920.543701	1153.208374
919.572327	1204.473389
918.600769	1181.097168
917.629028	1178.311157
916.657104	1208.965576
915.685059	1172.741943
914.712769	1213.671509
913.740356	1162.034912
912.767761	1159.254517
911.794983	1148.765259
910.822021	1151.127197
909.848877	1156.057251
908.875549	1037.694946
907.902039	1176.184204
906.928406	1178.539307
905.954590	1142.385986
904.980530	1172.979858
904.006348	1116.310791
903.031982	1218.739624
902.057434	1172.343872
901.082703	1295.244141
900.107849	1277.059326
899.132751	1246.061401
898.157532	1209.947876
897.182068	1266.114624
896.206482	1240.260498
895.230713	1224.663818
894.254761	1237.250244
893.278625	1165.314697
892.302307	1147.179199
891.325806	1175.133911
890.349182	1241.474487
889.372314	1172.149292
888.395325	1202.642944
887.418091	1192.191895
886.440735	1194.533936
885.463196	1207.104858
884.485474	1229.899048
883.507568	1191.328857
882.529480	1124.656250
881.551270	1208.786499
880.572815	1172.796021
879.594238	1180.247559
878.615417	1128.950195
877.636475	1207.911133
876.657349	1197.479248
875.677979	1245.765503
874.698486	1191.940796
873.718811	1199.380371
872.739014	1209.368774
871.758972	1216.802490
870.778748	1259.940186
869.798401	1241.861694
868.817810	1284.979126
867.837097	1241.411621
866.856140	1208.054321
865.875061	1177.257202
864.893799	1220.354858
863.912354	1309.287354
862.930725	1230.099487
861.948914	1234.969116
860.966919	1280.570801
859.984741	1249.793701
859.002441	1333.550049
858.019897	1300.229980
857.037231	1284.729980
856.054321	1279.409790
855.071289	1284.263794
854.088074	1350.139282
853.104614	1349.894287
852.121033	1344.565918
851.137268	1313.826904
850.153320	1341.537109
849.169189	1435.285889
848.184937	1442.644897
847.200439	1452.540649
846.215759	1513.211670
845.230896	1606.860840
844.245911	1667.481689
843.260681	1728.080322
842.275330	1859.695801
841.289795	2041.996216
840.304016	2006.118896
839.318115	1949.968628
838.332031	1762.005249
837.345764	1766.754761
836.359314	1639.716797
835.372681	1649.554443
834.385864	1563.118530
833.398865	1621.092407
832.411743	1613.200317
831.424377	1496.433472
830.436829	1473.377319
829.449158	1503.482910
828.461243	1442.473755
827.473206	1447.271973
826.484924	1454.598022
825.496521	1451.804199
824.507935	1360.502930
823.519104	1451.276245
822.530151	1367.591797
821.541016	1321.849243
820.551697	1394.891113
819.562195	1402.216919
818.572510	1505.530151
817.582642	1437.065063
816.592590	1522.658325
815.602356	1537.529297
814.611938	1658.411987
813.621399	1655.586426
812.630615	1902.568604
811.639648	2114.140869
810.648560	2540.038818
809.657227	2811.943848
808.665771	3073.664307
807.674072	2878.987305
806.682251	2563.394775
805.690186	2283.198486
804.697998	1879.642212
803.705566	1662.651367
802.713013	1662.348633
801.720276	1566.352295
800.727356	1417.517090
799.734253	1419.776245
798.740906	1437.135742
797.747437	1404.160400
796.753784	1391.324829
795.759949	1358.369751
794.765930	1275.125854
793.771729	1327.699707
792.777344	1317.401123
791.782776	1254.319336
790.788025	1241.524658
789.793091	1243.811035
788.798035	1258.658081
787.802734	1260.940430
786.807251	1195.414673
785.811584	1335.808105
784.815796	1247.698364
783.819763	1265.040771
782.823547	1254.771851
781.827148	1289.670166
780.830627	1276.891724
779.833862	1276.658813
778.836975	1311.533813
777.839844	1291.236450
776.842529	1240.864868
775.845093	1218.081421
774.847412	1272.988525
773.849609	1220.142212
772.851563	1217.414551
771.853394	1322.381714
770.854980	1194.433594
769.856445	1199.222656
768.857666	1201.506836
767.858765	1226.314209
766.859680	1301.156982
765.860352	1183.336304
764.860901	1155.605713
763.861206	1287.939941
762.861389	1182.687988
761.861389	1207.471313
760.861145	1202.251709
759.860779	1174.542725
758.860168	1189.319580
757.859436	1159.124878
756.858521	1291.288818
755.857361	1201.153564
754.856079	1173.469849
753.854614	1275.603149
752.852905	1295.336670
751.851074	1275.136841
750.848999	1372.205444
749.846802	1761.090820
748.844421	2217.171875
747.841797	2623.215332
746.839050	2652.652588
745.836121	2081.353271
744.832947	1590.012573
743.829651	1375.433105
742.826111	1285.495728
741.822449	1257.861572
740.818604	1230.237549
739.814514	1259.891235
738.810303	1222.318970
737.805847	1286.809082
736.801270	1199.474731
735.796448	1199.255127
734.791504	1186.597534
733.786316	1173.944458
732.781006	1228.437256
731.775452	1277.937500
730.769775	1208.100952
729.763855	1255.101318
728.757751	1222.567871
727.751526	1217.375122
726.745056	1147.600586
725.738403	1187.126831
724.731628	1191.875488
723.724609	1156.900513
722.717407	1213.778320
721.710083	1196.183838
720.702515	1156.264648
719.694763	1208.149536
718.686829	1319.543579
717.678711	1294.502808
716.670410	1271.950684
715.661987	1244.448730
714.653320	1187.214478
713.644470	1229.124023
712.635437	1196.689575
711.626221	1218.764648
710.616821	1196.250732
709.607178	1186.126343
708.597412	1220.569946
707.587463	1225.296753
706.577332	1262.195435
705.567017	1162.986328
704.556458	1170.194946
703.545776	1179.874268
702.534912	1234.065552
701.523804	1248.674805
700.512573	1142.142334
699.501099	1201.253906
698.489502	1289.998901
697.477661	1277.407959
696.465698	1326.580566
695.453491	1279.408936
694.441101	1382.890869
693.428589	1367.822998
692.415833	1323.138062
691.402893	1382.129150
690.389771	1352.263672
689.376465	1319.942017
688.362976	1349.300293
687.349304	1361.383789
686.335449	1324.146362
685.321411	1333.764526
684.307190	1279.291260
683.292725	1488.535522
682.278137	1727.270996
681.263367	1946.210083
680.248352	2167.531738
679.233215	1992.285156
678.217834	1733.388062
677.202332	1499.203491
676.186584	1346.327637
675.170654	1262.411499
674.154541	1291.703979
673.138306	1202.908813
672.121826	1244.498779
671.105164	1138.531494
670.088318	1229.289551
669.071289	1219.230957
668.054016	1275.533203
667.036621	1147.522949
666.019043	1184.163330
665.001282	1206.052368
663.983276	1164.080688
662.965149	1149.133911
661.946777	1161.197266
660.928223	1173.256104
659.909546	1165.677979
658.890625	1199.813843
657.871521	1179.967773
656.852234	1150.317993
655.832764	1191.794556
654.813110	1176.864258
653.793274	1218.320435
652.773254	1203.390747
651.752991	1141.907959
650.732605	1193.147461
649.711975	1153.734985
648.691223	1209.851563
647.670227	1236.563721
646.649048	1157.993774
645.627747	1187.153320
644.606201	1189.381836
643.584473	1201.396729
642.562561	1218.300049
641.540466	1142.251465
640.518127	1186.059692
639.495667	1180.950928
638.473022	1188.067017
637.450134	1151.185913
636.427063	1192.516235
635.403870	1238.717651
634.380432	1199.404785
633.356812	1152.779297
632.333008	1206.288086
631.309021	1188.975464
630.284851	1244.898682
629.260498	1220.263672
628.235901	1227.358765
627.211182	1180.779419
626.186218	1178.122437
625.161133	1138.885376
624.135803	1172.811035
623.110291	1123.838013
622.084595	1189.439697
621.058716	1216.026367
620.032654	1137.834595
619.006409	1227.757568
617.979919	1227.530884
616.953308	1176.166504
615.926453	1212.469482
614.899414	1183.034790
613.872253	1241.226929
612.844849	1219.097778
611.817261	1250.500000
610.789490	1191.890625
609.761475	1235.446045
608.733337	1189.018677
607.705017	1208.247681
606.676453	1234.761353
605.647705	1149.476685
604.618774	1149.264282
603.589722	1217.071777
602.560425	1153.697144
601.530884	1226.335449
600.501221	1177.549927
599.471375	1259.866821
598.441284	1276.623169
597.411011	1344.331665
596.380615	1234.906616
595.349976	1292.894897
594.319153	1295.081055
593.288147	1323.938965
592.256897	1309.148071
591.225525	1267.699463
590.193970	1238.383545
589.162170	1250.269409
588.130188	1201.587036
587.098022	1194.098267
586.065674	1230.202148
585.033142	1174.286621
584.000427	1205.539185
582.967468	1159.330078
581.934387	1180.894165
580.901062	1265.355225
579.867554	1192.551758
578.833862	1216.516235
577.799988	1221.127075
576.765930	1196.724609
575.731628	1186.834229
574.697205	1302.617432
573.662537	1217.806274
572.627747	1282.808228
571.592712	1200.447388
570.557434	1212.299683
569.522034	1245.877930
568.486450	1129.772949
567.450623	1170.594727
566.414673	1196.922363
565.378479	1194.287842
564.342102	1196.478638
563.305542	1198.668701
562.268799	1200.857788
561.231812	1215.100586
560.194702	1241.390503
559.157349	1219.470093
558.119812	1269.844971
557.082092	1240.699951
556.044189	1235.652466
555.006042	1305.261963
553.967773	1242.417358
552.929260	1247.001587
551.890625	1251.583984
550.851746	1256.164673
549.812683	1292.021484
548.773376	1205.181885
547.733948	1262.680664
546.694275	1175.878540
545.654419	1221.340332
544.614441	1230.728760
543.574158	1266.550049
542.533752	1223.063110
541.493164	1275.689453
540.452332	1253.834717
539.411316	1231.988037
538.370178	1212.550537
537.328735	1320.354248
536.287170	1353.711792
535.245422	1324.663330
534.203430	1302.823486
533.161255	1336.165405
532.118896	1331.120361
531.076355	1299.699341
530.033630	1299.457886
528.990723	1351.952026
527.947571	1356.494019
526.904236	1265.186768
525.860718	1288.909058
524.817017	1286.274048
523.773132	1274.060669
522.729004	1285.795776
521.684692	1328.648071
520.640198	1304.465820
519.595520	1368.836060
518.550659	1313.551147
517.505615	1303.738037
516.460327	1308.279053
515.414856	1257.818481
514.369202	1255.193604
513.323364	1252.569702
512.277283	1283.406006
511.231079	1254.493042
510.184631	1235.147095
509.138000	1232.528564
508.091187	1153.489380
507.044159	1186.702881
505.996948	1179.320068
504.949554	1181.487305
503.901947	1183.653809
502.854126	1166.731689
501.806152	1190.369507
500.757965	1273.625122
499.709564	1235.234009
