#Wave		#Intensity
3200.600830	50.518227
3200.007080	12.629557
3199.413086	42.092159
3198.819092	25.251478
3198.224854	25.247662
3197.630615	-8.414616
3197.036377	42.066715
3196.442139	58.884502
3195.847656	25.232399
3195.252930	54.661934
3194.658447	33.633026
3194.063721	33.627941
3193.468750	46.231430
3192.873779	-4.202222
3192.278809	33.612690
3191.683838	46.210461
3191.088623	8.400631
3190.493164	29.397762
3189.897949	54.587585
3189.302490	20.992050
3188.706787	83.955498
3188.111328	54.562820
3187.515381	62.947575
3186.919678	50.350441
3186.323730	62.928532
3185.727783	58.724411
3185.131592	37.745693
3184.535400	50.319977
3183.939209	0.000000
3183.342773	33.536499
3182.746338	25.148569
3182.149902	33.526348
3181.553223	20.950798
3180.956543	46.084778
3180.359619	29.322239
3179.762695	20.941286
3179.165771	58.626724
3178.568604	37.682903
3177.971436	29.304487
3177.374268	62.785824
3176.776855	12.555264
3176.179443	-4.184454
3175.581787	71.124947
3174.984131	41.831871
3174.386475	12.547661
3173.788574	25.091520
3173.190674	16.725147
3172.592773	29.264576
3171.994629	37.620182
3171.396484	12.538162
3170.798340	50.145050
3170.199951	12.534364
3169.601563	33.419907
3169.002930	54.299122
3168.404297	20.881113
3167.805664	25.053539
3167.206787	25.049744
3166.607910	29.220272
3166.008789	25.042152
3165.409912	45.903656
3164.810547	54.241554
3164.211426	20.858974
3163.612061	66.738602
3163.012695	45.875835
3162.413086	16.679592
3161.813477	33.354130
3161.213623	25.011805
3160.614014	16.672009
3160.013916	33.338963
3159.414063	20.833693
3158.813965	45.827175
3158.213867	8.330950
3157.613525	37.483593
3157.013184	16.656847
3156.412598	45.799385
3155.812256	12.488847
3155.211426	12.486953
3154.610840	37.455177
3154.010010	4.161055
3153.409180	37.443817
3152.808105	24.958757
3152.207031	45.750782
3151.605957	58.219433
3151.004639	37.421101
3150.403320	41.572693
3149.801758	24.939831
3149.200195	37.404072
3148.598633	33.243019
3147.996826	41.547466
3147.395020	37.387047
3146.793213	37.381371
3146.191162	16.611422
3145.589111	-4.152225
3144.986816	-4.151595
3144.384766	37.358681
3143.782227	29.052341
3143.179932	29.047932
3142.577393	0.000000
3141.974609	58.078224
3141.371826	29.034704
3140.769043	29.030294
3140.166260	49.758663
3139.563232	8.291851
3138.960205	16.581184
3138.356934	4.144667
3137.753662	49.728447
3137.150391	8.286816
3136.546875	8.285557
3135.943359	41.421494
3135.339600	16.566080
3134.735840	57.972473
3134.132080	49.683144
3133.528076	8.279265
3132.924072	41.390041
3132.320068	24.830252
3131.715820	24.826479
3131.111572	45.508293
3130.507080	4.136489
3129.902588	37.222744
3129.298096	4.135232
3128.693604	33.076828
3128.088867	16.535900
3127.483887	33.066772
3126.878906	41.327183
3126.273926	8.264180
3125.668945	20.657310
3125.063721	33.046673
3124.458252	53.692680
3123.853027	33.036625
3123.247559	20.644751
3122.641846	61.924835
3122.036133	45.404640
3121.430420	45.397736
3120.824707	41.264393
3120.218750	45.383930
3119.612549	20.625921
3119.006592	49.494682
3118.400391	0.000000
3117.793945	20.616512
3117.187500	24.736052
3116.581055	16.488192
3115.974609	12.364263
3115.367920	41.207939
3114.760986	65.922668
3114.154297	41.195400
3113.547363	20.594566
3112.940186	24.709719
3112.333008	37.058937
3111.725830	12.351100
3111.118408	49.396881
3110.510986	20.578901
3109.903564	24.690922
3109.295898	24.687164
3108.688232	45.252911
3108.080566	32.906200
3107.472656	24.675892
3106.864746	45.232246
3106.256592	37.002567
3105.648438	57.550789
3105.040039	28.771013
3104.431885	41.095188
3103.823486	16.435572
3103.214844	20.541336
3102.606201	12.322925
3101.997559	36.963146
3101.388672	32.851124
3100.779785	28.740356
3100.170898	41.051399
3099.561768	28.731602
3098.952637	16.415556
3098.343262	28.722847
3097.733887	41.026390
3097.124512	36.918125
3096.514893	36.912498
3095.905273	20.503819
3095.295410	36.901253
3094.685791	20.497572
3094.075684	20.494448
3093.465820	20.491323
3092.855713	24.585842
3092.245361	65.552254
3091.635254	28.674738
3091.024658	24.574600
3090.414307	45.046566
3089.803711	49.134216
3089.193115	61.408409
3088.582275	24.559618
3087.971436	49.111748
3087.360596	28.644152
3086.749512	65.462364
3086.138428	16.363096
3085.527100	40.901501
3084.915771	40.895264
3084.304443	40.889027
3083.692871	0.000000
3083.081299	53.139519
3082.469482	4.087032
3081.857910	28.604860
3081.245850	28.600496
3080.634033	36.766457
3080.021973	32.676308
3079.409668	20.419577
3078.797607	16.333170
3078.185059	-4.082669
3077.572754	32.656372
3076.960205	32.651386
3076.347656	32.646404
3075.734863	65.282845
3075.122070	0.000000
3074.509033	16.315729
3073.895996	4.078310
3073.282959	32.621498
3072.669922	20.385324
3072.056641	16.305769
3071.443115	36.682381
3070.829834	52.977573
3070.216064	16.298302
3069.602539	48.887444
3068.988770	20.366657
3068.375000	8.145419
3067.760986	28.504612
3067.146973	32.571724
3066.532715	4.070844
3065.918701	52.912888
3065.304199	28.487202
3064.689941	40.689789
3064.075439	20.341785
3063.460693	36.609623
3062.846191	61.006714
3062.231445	44.731422
3061.616455	65.053947
3061.001465	52.848255
3060.386475	24.387775
3059.771240	48.768097
3059.156006	60.950806
3058.540771	52.815960
3057.925293	44.683598
3057.309814	60.922867
3056.694092	60.913555
3056.078369	20.301414
3055.462646	12.178987
3054.846680	8.118083
3054.230713	8.116842
3053.614502	52.751411
3052.998291	52.743343
3052.382080	52.735279
3051.765625	64.895035
3051.149170	48.663834
3050.532715	16.218798
3049.916016	52.703033
3049.299316	44.588055
3048.682373	32.422714
3048.065430	64.835510
3047.448486	48.619198
3046.831299	16.203920
3046.214111	8.100720
3045.596680	40.497406
3044.979248	80.982422
3044.361816	32.388016
3043.744141	36.430943
3043.126465	40.472630
3042.508545	0.000000
3041.890869	0.000000
3041.272705	8.090811
3040.654785	52.582222
3040.036621	24.265003
3039.418213	44.479031
3038.799805	52.558083
3038.181396	52.550037
3037.562988	36.375225
3036.944336	36.369656
3036.325439	36.364090
3035.706543	8.079672
3035.087646	44.431389
3034.468750	48.463184
3033.849609	56.531727
3033.230469	56.523067
3032.611084	32.293949
3031.991699	68.614136
3031.372070	56.497105
3030.752441	48.418674
3030.132813	36.308441
3029.513184	60.504803
3028.893066	20.165178
3028.273193	20.162088
3027.653076	16.127201
3027.032959	32.249458
3026.412598	36.275082
3025.792480	16.119789
3025.171875	20.146648
3024.551270	20.143562
3023.930664	44.309044
3023.310059	32.219822
3022.689209	56.376045
3022.068115	16.104973
3021.447266	36.230637
3020.826172	44.275101
3020.204834	56.341492
3019.583496	40.237751
3018.962158	32.185268
3018.340576	48.270500
3017.718994	48.263100
3017.097412	72.383553
3016.475586	44.227608
3015.853760	12.060225
3015.231689	40.194588
3014.609619	24.113054
3013.987549	36.164036
3013.365234	28.123268
3012.742920	40.169937
3012.120361	40.163773
3011.497803	48.189137
3010.875244	44.166599
3010.252441	52.188881
3009.629639	20.069567
3009.006836	56.186169
3008.383789	8.025364
3007.760498	16.048265
3007.137451	48.137409
3006.514160	16.043341
3005.890625	28.071537
3005.267090	60.144062
3004.643555	40.089890
3004.019775	24.050241
3003.395996	40.077583
3002.772217	92.164291
3002.148193	88.143616
3001.524170	12.017738
3000.899902	28.037085
3000.275635	68.079613
2999.651367	76.077293
2999.026855	32.027626
2998.402344	60.042580
2997.777588	48.026688
2997.152832	44.017704
2996.528076	56.013927
2995.903076	60.005707
2995.278076	31.998127
2994.653076	27.994061
2994.027832	43.983910
2993.402344	55.970924
2992.777100	107.927345
2992.151367	67.943810
2991.525879	47.952969
2990.900146	83.904808
2990.274414	55.927940
2989.648438	27.959675
2989.022461	63.898006
2988.396240	71.874214
2987.770264	51.901176
2987.143799	47.901413
2986.517578	55.876392
2985.891113	67.839478
2985.264404	59.849163
2984.637695	95.743942
2984.010986	83.763069
2983.384033	75.773987
2982.757080	75.762337
2982.130127	75.750687
2981.502930	67.766510
2980.875732	87.684349
2980.248291	83.685829
2979.620850	75.704102
2978.993408	83.660088
2978.365723	63.731216
2977.738037	87.616951
2977.110107	107.513351
2976.482178	103.515450
2975.854248	79.615021
2975.226074	123.384300
2974.597900	107.447212
2973.969482	111.409599
2973.341309	131.283966
2972.712646	131.263763
2972.083984	127.266487
2971.455322	135.199844
2970.826660	166.985870
2970.197754	162.984924
2969.568604	230.528549
2968.939697	206.648972
2968.310547	202.643753
2967.681152	194.666962
2967.051758	218.470108
2966.422363	250.209045
2965.792725	214.431885
2965.163086	277.924469
2964.533203	285.821167
2963.903564	254.024124
2963.273438	261.922058
2962.643311	261.881714
2962.013184	273.743256
2961.383057	309.401245
2960.752686	301.421448
2960.122314	321.202332
2959.491699	348.906830
2958.861084	329.031891
2958.230225	372.581116
2957.599609	317.041473
2956.968506	261.518921
2956.337646	388.256134
2955.706299	301.050201
2955.075195	320.806702
2954.443848	332.637177
2953.812500	281.114288
2953.180908	285.029724
2952.549316	320.609009
2951.917725	277.026825
2951.285889	292.811798
2950.653809	324.417114
2950.021973	316.455719
2949.389893	284.766235
2948.757568	336.130524
2948.125244	284.678436
2947.492920	280.681305
2946.860352	304.353912
2946.227783	256.882507
2945.595215	241.037186
2944.962402	272.606567
2944.329590	221.211807
2943.696533	185.631271
2943.063477	252.735519
2942.430420	177.677246
2941.797119	169.754303
2941.163574	181.569611
2940.530273	161.808823
2939.896729	189.405487
2939.262939	193.321609
2938.629150	224.849625
2937.995361	153.820755
2937.361328	177.458099
2936.727295	161.659088
2936.093262	197.114807
2935.458984	157.667511
2934.824707	165.525345
2934.190186	232.487808
2933.555664	232.451935
2932.921143	208.780518
2932.286377	252.073410
2931.651367	263.848633
2931.016602	255.933029
2930.381592	275.577637
2929.746338	291.279938
2929.111084	287.299377
2928.475830	283.320007
2927.840332	314.751404
2927.204834	350.106873
2926.569336	342.186432
2925.933594	310.673035
2925.297607	338.148804
2924.661865	357.753357
2924.025879	389.144073
2923.389648	389.083954
2922.753418	381.164795
2922.117188	330.029846
2921.480713	322.122223
2920.844238	416.337585
2920.207764	420.200348
2919.571045	349.458435
2918.934082	380.811584
2918.297363	427.856171
2917.660156	376.769226
2917.023193	361.014709
2916.385986	360.958923
2915.748779	321.674530
2915.111328	349.080566
2914.473877	349.026611
2913.836182	337.209534
2913.198486	423.406982
2912.560791	388.063080
2911.922852	344.891632
2911.284912	368.350006
2910.646729	368.293030
2910.008545	426.997162
2909.370361	415.180756
2908.731934	458.194672
2908.093506	434.630280
2907.455078	446.308014
2906.816406	426.667084
2906.177490	438.342407
2905.538574	536.103760
2904.899658	481.244965
2904.260498	535.937927
2903.621338	531.943665
2902.982178	547.504333
2902.342773	473.126953
2901.703369	523.877686
2901.063721	527.705566
2900.424072	488.540649
2899.784424	531.449951
2899.144531	488.389465
2898.504639	515.659424
2897.864502	464.802856
2897.224365	464.730896
2896.583984	484.182465
2895.943848	480.203400
2895.303223	511.356964
2894.662842	460.540314
2894.021973	476.078125
2893.381348	444.791016
2892.740479	495.436066
2892.099609	499.259827
2891.458496	503.082367
2890.817383	499.105194
2890.176025	471.737305
2889.534668	526.237000
2888.893311	483.283539
2888.251709	588.423462
2887.610107	557.162415
2886.968262	557.076111
2886.326416	646.575562
2885.684570	568.586792
2885.042480	704.782654
2884.400391	599.556396
2883.758057	700.671631
2883.115723	700.563049
2882.473389	716.020142
2881.830811	750.926453
2881.188232	680.786316
2880.545410	754.583313
2879.902588	723.354309
2879.259766	699.911804
2878.616699	773.671448
2877.973633	738.566772
2877.330322	629.627747
2876.687012	746.109741
2876.043457	691.598694
2875.399902	621.565369
2874.756348	652.542419
2874.112549	621.372620
2873.468750	594.095398
2872.824707	578.473755
2872.180664	659.901245
2871.536621	566.650818
2870.892334	593.726929
2870.248047	628.554504
2869.603760	554.749084
2868.958984	558.541809
2868.314453	566.211426
2867.669678	608.776733
2867.024902	647.451843
2866.379883	585.329712
2865.734863	612.369141
2865.089844	654.900818
2864.444580	623.802795
2863.799316	553.974854
2863.153809	615.862488
2862.508301	561.548401
2861.862549	580.821960
2861.216797	483.943176
2860.571045	449.029541
2859.925049	402.515717
2859.279053	406.322968
2858.632813	336.615326
2857.986572	328.825989
2857.340332	309.435242
2856.693848	359.662598
2856.047363	262.938263
2855.400635	266.763580
2854.753906	301.511993
2854.107178	313.059967
2853.460205	282.096649
2852.813232	231.824234
2852.166016	216.335678
2851.518799	281.965179
2850.871338	293.507202
2850.223877	239.402878
2849.576416	266.390839
2848.928711	277.929871
2848.281006	277.886688
2847.633301	308.714996
2846.985352	289.375336
2846.337158	297.045837
2845.688965	323.999634
2845.040771	320.092743
2844.392578	308.475159
2843.743896	362.401978
2843.095459	385.474091
2842.446777	373.851746
2841.798096	346.818817
2841.149170	400.706116
2840.500244	362.120361
2839.851074	454.505920
2839.202148	442.881805
2838.552734	454.364594
2837.903320	427.344299
2837.253906	438.825867
2836.604492	442.606384
2835.954834	434.841217
2835.304932	427.078491
2834.655029	380.848572
2834.005127	388.482056
2833.354980	334.580994
2832.704834	326.838623
2832.054688	311.409515
2831.404297	299.829163
2830.753906	272.878967
2830.103271	238.251587
2829.452637	192.108475
2828.801758	169.029144
2828.150879	153.638947
2827.500000	157.455414
2826.848877	153.591125
2826.197754	184.280655
2825.546387	165.059052
2824.895020	142.005447
2824.243408	118.959015
2823.591797	111.266914
2822.940186	107.413399
2822.288330	99.725479
2821.636475	134.224930
2820.984619	72.853615
2820.332520	92.011292
2819.680176	99.663376
2819.028076	95.815239
2818.375488	76.640251
2817.723145	72.796898
2817.070557	88.108841
2816.417725	84.264893
2815.764893	103.399887
2815.112061	118.699898
2814.458984	111.024536
2813.805908	72.728882
2813.152832	65.063065
2812.499512	95.666069
2811.845947	103.303261
2811.192383	91.810806
2810.538818	87.971642
2809.885010	84.133675
2809.231201	76.473236
2808.577393	45.876789
2807.923340	64.981987
2807.269287	84.081230
2806.614990	80.246841
2805.960693	64.951599
2805.306152	95.502167
2804.651611	106.945747
2803.997070	61.102325
2803.342285	91.639198
2802.687500	91.624901
2802.032471	68.707962
2801.377441	64.880730
2800.722412	68.686531
2800.067139	61.045170
2799.411621	87.738739
2798.756348	38.141327
2798.100586	61.016605
2797.445068	64.820030
2796.789307	76.246956
2796.133301	49.552788
2795.477539	83.845482
2794.821289	83.832397
2794.165283	53.339565
2793.509033	15.237497
2792.852539	45.705357
2792.196045	91.396446
2791.539551	26.653135
2790.882813	72.332932
2790.226074	68.515236
2789.569092	60.892925
2788.912109	41.857349
2788.255127	68.483154
2787.597900	34.236229
2786.940430	49.444611
2786.283203	60.845402
2785.625488	53.231411
2784.968018	79.834648
2784.310303	60.816898
2783.652588	72.208786
2782.994629	64.597771
2782.336426	68.386955
2781.678467	83.570999
2781.020264	83.557945
2780.361816	79.747398
2779.703369	34.172115
2779.044922	26.574160
2778.386230	75.914307
2777.727539	64.517075
2777.068604	72.096054
2776.409668	37.939362
2775.750732	45.520119
2775.091553	60.684006
2774.432373	68.258835
2773.772949	102.372246
2773.113525	60.655552
2772.453857	90.969109
2771.794189	68.216164
2771.134521	37.891945
2770.474609	49.251823
2769.814697	71.972183
2769.154541	71.960930
2768.494385	98.457451
2767.833984	64.365959
2767.173584	45.427689
2766.513184	52.990681
2765.852539	60.551304
2765.191895	37.838646
2764.531006	41.615997
2763.870117	49.174850
2763.209229	41.602978
2762.548096	68.066948
2761.886719	37.809055
2761.225586	90.727539
2760.563965	64.255280
2759.902588	83.140884
2759.240967	79.349335
2758.579102	52.891277
2757.917236	52.882999
2757.255371	67.981789
2756.593262	83.075844
2755.931152	94.389587
2755.269043	67.949867
2754.606689	90.585640
2753.944092	94.345268
2753.281494	101.876938
2752.618896	82.997841
2751.956055	75.440765
2751.293213	67.886055
2750.630371	60.333714
2749.967285	79.175598
2749.303955	71.623848
2748.640625	79.150795
2747.977295	75.369904
2747.313721	97.965530
2746.650146	101.717499
2745.986572	71.567764
2745.322754	60.258152
2744.658691	71.545341
2743.994873	128.008453
2743.330566	86.580383
2742.666504	86.566818
2742.002197	67.737328
2741.337646	75.251900
2740.673096	105.336151
2740.008545	78.989731
2739.343750	124.107262
2738.678955	105.286629
2738.013916	124.068359
2737.348877	109.012680
2736.683594	78.927841
2736.018311	112.736382
2735.353027	116.475990
2734.687500	105.187630
2734.021973	105.171135
2733.356201	75.110458
2732.690430	97.628281
2732.024658	93.858627
2731.358643	93.843903
2730.692383	127.607697
2730.026367	108.824783
2729.359863	90.047760
2728.693604	131.299057
2728.027100	161.284958
2727.360352	116.256958
2726.693604	123.737991
2726.026855	131.216675
2725.359863	116.202248
2724.692871	142.419113
2724.025635	157.385895
2723.358398	176.094666
2722.691162	134.859848
2722.023682	157.311798
2721.355957	161.032043
2720.688477	142.285049
2720.020508	183.444016
2719.352783	172.185715
2718.684814	157.188370
2718.016602	153.421692
2717.348389	134.690582
2716.680176	168.336792
2716.011719	130.908051
2715.343262	123.408211
2714.674561	115.910721
2714.005859	127.107918
2713.337158	108.398552
2712.668213	127.067993
2711.999023	130.784744
2711.329834	112.083595
2710.660645	82.181725
2709.991455	138.193008
2709.321777	149.374374
2708.652344	89.610542
2707.982666	145.594238
2707.312988	78.384583
2706.643066	115.692390
2705.972900	108.211357
2705.302979	119.386871
2704.632813	89.526077
2703.962402	59.674671
2703.291992	78.310692
2702.621582	78.298386
2701.950928	119.293068
2701.280273	100.637703
2700.609375	104.348618
2699.938477	93.153755
2699.267334	89.413544
2698.596191	63.324635
2697.925049	63.314678
2697.253662	78.199951
2696.582031	78.187653
2695.910645	107.956436
2695.239014	78.163055
2694.567139	104.201012
2693.895264	66.975830
2693.223145	93.007347
2692.551270	81.833595
2691.878906	85.539841
2691.206543	81.807846
2690.534180	70.641113
2689.861816	66.912628
2689.189209	59.468533
2688.516357	63.175369
2687.843506	70.596657
2687.170654	81.730629
2686.497559	48.287769
2685.824463	81.704903
2685.151123	96.545135
2684.477783	81.679184
2683.804199	51.969479
2683.130615	55.672817
2682.457031	63.085922
2681.783203	85.338104
2681.109375	59.356289
2680.435303	59.346943
2679.761230	55.628998
2679.086914	70.452301
2678.412598	70.441200
2677.738281	85.257500
2677.063721	96.362862
2676.389160	100.053360
2675.714355	92.627403
2675.039551	51.863174
2674.364502	81.486435
2673.689453	74.066910
2673.014404	62.946949
2672.339111	44.426140
2671.663574	114.749443
2670.988037	66.618210
2670.312500	66.607712
2669.636719	44.398140
2668.960938	59.188190
2668.285156	81.370934
2667.609131	92.452393
2666.932861	51.765179
2666.256592	77.635529
2665.580322	77.623283
2664.903809	81.306808
2664.227295	62.818085
2663.550781	48.029785
2662.874023	73.880325
2662.197021	70.175240
2661.520020	107.092682
2660.843018	95.998985
2660.165771	121.825645
2659.488525	84.895393
2658.811035	110.715652
2658.133545	84.868607
2657.455811	84.855217
2656.778076	84.841835
2656.100342	62.699287
2655.422363	84.815063
2654.744385	81.114647
2654.066162	106.906982
2653.387939	77.403183
2652.709473	110.558525
2652.031006	103.171669
2651.352539	103.155380
2650.673828	84.721405
2649.994873	106.805779
2649.316162	84.694656
2648.636963	77.317696
2647.958008	66.261848
2647.278809	58.890121
2646.599365	62.560875
2645.919922	110.384109
2645.240479	91.972229
2644.560791	51.496315
2643.880859	66.199089
2643.201172	62.511490
2642.520996	102.943840
2641.841064	73.519699
2641.160889	77.183487
2640.480469	55.122353
2639.800049	69.810616
2639.119629	44.083950
2638.438965	77.134727
2637.758301	62.432529
2637.077393	73.438431
2636.396484	58.741459
2635.715332	66.073700
2635.034180	66.063255
2634.353027	73.392014
2633.671631	84.387474
2632.989990	84.374138
2632.308350	113.703682
2631.626709	62.343777
2630.944824	62.333920
2630.262939	73.322426
2629.581055	54.983128
2628.898926	25.654736
2628.216553	98.938332
2627.534180	73.276062
2626.851807	73.264473
2626.169189	98.891396
2625.486572	62.255108
2624.803711	80.552689
2624.120850	76.879044
2623.437988	102.489174
2622.754883	69.535225
2622.071533	98.797577
2621.388184	76.830399
2620.704834	76.818245
2620.021240	43.889194
2619.337646	87.764496
2618.653809	73.125511
2617.969971	76.769630
2617.286133	62.137009
2616.602051	95.018028
2615.917725	80.387146
2615.233398	58.454124
2614.549072	91.320114
2613.864502	98.610107
2613.179932	65.729668
2612.495117	109.532097
2611.810303	65.708855
2611.125488	54.748707
2610.440430	51.090702
2609.755127	72.975159
2609.069824	69.315422
2608.384521	51.066429
2607.698975	94.822632
2607.013428	69.282486
2606.327637	72.917381
2605.641846	80.196411
2604.956055	72.894279
2604.270020	61.950321
2603.583740	98.376099
2602.897461	47.358765
2602.211182	36.424046
2601.524658	69.194725
2600.838135	72.825005
2600.151367	91.016830
2599.464600	58.241539
2598.777832	65.511345
2598.090820	72.778847
2597.403564	61.852215
2596.716309	43.653465
2596.029053	98.204727
2595.341553	101.825790
2594.654053	83.629356
2593.966309	69.074165
2593.278564	94.507553
2592.590820	39.977623
2591.902832	65.407555
2591.214600	87.196243
2590.526367	87.182411
2589.838135	65.376434
2589.149658	68.997513
2588.461182	76.248314
2587.772461	98.017998
2587.083740	108.891609
2586.394775	87.099464
2585.705811	97.971352
2585.016846	83.443832
2584.327637	61.666092
2583.638184	32.641571
2582.948975	87.030380
2582.259277	58.011044
2581.569824	76.127411
2580.879883	90.613487
2580.190186	50.735497
2579.500244	76.091164
2578.810059	79.701897
2578.119873	65.200294
2577.429688	47.081623
2576.739258	54.316326
2576.048584	72.410271
2575.358154	79.638649
2574.667236	54.290455
2573.976563	72.375778
2573.285645	68.746063
2572.594482	54.264591
2571.903320	83.192490
2571.212158	61.480331
2570.520752	79.550140
2569.829102	68.691483
2569.137451	93.983940
2568.445801	108.425774
2567.753906	50.590656
2567.062012	72.260880
2566.370117	79.474335
2565.677979	46.954647
2564.985596	57.781147
2564.293213	75.825706
2563.600830	79.423828
2562.908203	57.753601
2562.215332	79.398575
2561.522705	57.735241
2560.829590	93.804848
2560.136719	72.146103
2559.443604	93.775024
2558.750244	97.366272
2558.056885	79.322868
2557.363525	57.680183
2556.669922	72.088760
2555.976074	86.492760
2555.282227	75.669128
2554.588379	79.259804
2553.894287	86.451492
2553.200195	68.429878
2552.505859	64.817993
2551.811523	75.608955
2551.117188	82.796638
2550.422607	50.389935
2549.727783	75.572876
2549.032959	71.962715
2548.338135	82.743950
2547.643066	71.939812
2546.947998	75.524780
2546.252686	107.875366
2545.557373	61.119644
2544.861816	82.678123
2544.166260	107.823860
2543.470703	79.058243
2542.774902	79.045654
2542.078857	46.701359
2541.382813	57.469444
2540.686768	71.825371
2539.990479	71.813927
2539.294189	71.802490
2538.597656	93.328377
2537.901123	78.957588
2537.204346	61.002964
2536.507568	82.520271
2535.810791	100.443459
2535.113770	50.213730
2534.416504	75.308594
2533.719238	64.539940
2533.021973	78.869583
2532.324463	68.103783
2531.626953	57.341415
2530.929199	85.998421
2530.231445	118.228981
2529.533447	89.553131
2528.835449	50.141762
2528.137451	82.362625
2527.439209	50.125778
2526.740723	75.176682
2526.042236	89.481781
2525.343750	114.518425
2524.645020	135.968948
2523.946289	107.326790
2523.247314	93.001717
2522.548340	67.951958
2521.849121	21.455090
2521.149902	103.683067
2520.450684	128.689484
2519.751221	114.372406
2519.051514	82.192055
2518.351807	107.189926
2517.652100	78.593407
2516.952148	82.152725
2516.252197	85.710907
2515.552002	85.697235
2514.851807	117.814896
2514.151367	92.809044
2513.450928	107.070267
2512.750244	103.484741
2512.049561	78.493134
2511.348877	67.778709
2510.647949	78.468086
2509.946777	85.587883
2509.245605	85.574219
2508.544434	42.780277
2507.843018	64.160172
2507.141602	74.841583
2506.439941	99.772842
2505.738281	78.380432
2505.036377	74.805740
2504.334473	92.601837
2503.632568	96.148087
2502.930420	85.451317
2502.228027	92.557480
2501.525635	81.864693
2500.823242	53.381485
2500.120605	35.581974
2499.417969	88.940720
2498.715088	81.812393
2498.012207	103.138268
2497.309082	92.454018
2496.605957	92.439247
2495.902588	88.869690
2495.199219	67.530167
2494.495605	85.287636
2493.791992	78.167831
2493.088379	88.812889
2492.384521	67.487007
2491.680664	78.130356
2490.976563	88.770302
2490.272461	88.756111
2489.568115	35.496769
2488.863770	95.825951
2488.159180	106.456253
2487.454590	60.315563
2486.749756	85.137764
2486.044922	95.764671
2485.339844	67.379173
2484.634766	106.371155
2483.929688	106.354141
2483.224365	67.346848
2482.519043	88.600098
2481.813477	95.672798
2481.107666	85.028877
2480.402100	81.472969
2479.696045	63.751255
2478.990234	92.070412
2478.284180	95.596275
2477.577881	88.500908
2476.871582	81.407806
2476.165039	95.550385
2475.458496	81.381744
2474.751953	99.057571
2474.045166	77.818489
2473.338379	102.562500
2472.631348	84.865723
2471.924072	84.852135
2471.217041	70.698792
2470.509521	88.359337
2469.802246	77.743759
2469.094482	88.331039
2468.386963	70.653511
2467.679199	81.238525
2466.971191	109.477867
2466.263184	123.584244
2465.554932	105.912384
2464.846680	102.365570
2464.138428	88.232048
2463.429932	52.930744
2462.721436	77.619324
2462.012695	59.968956
2461.303955	91.702530
2460.594971	84.634926
2459.885986	91.673141
2459.176758	63.455849
2458.467529	56.396160
2457.758057	59.911316
2457.048584	109.232529
2456.338867	88.076630
2455.629150	59.882507
2454.919434	91.570328
2454.209473	102.119759
2453.499512	73.936935
2452.789307	102.087013
2452.078857	84.472252
2451.368408	73.901367
2450.657959	84.445160
2449.947266	87.949608
2449.236572	94.970337
2448.525879	101.988815
2447.814697	56.260666
2447.103760	94.924644
2446.392578	91.394249
2445.681152	91.379585
2444.969727	122.991241
2444.258301	94.863739
2443.546631	80.796883
2442.834717	115.907356
2442.122803	122.912315
2441.410889	91.291641
2440.698730	84.255676
2439.986572	77.221977
2439.274170	87.738159
2438.561768	84.215111
2437.849121	101.743591
2437.136475	98.219421
2436.423584	77.160011
2435.710693	70.134201
2434.997803	70.122940
2434.284424	42.067005
2433.571289	87.625526
2432.857910	84.106995
2432.144287	91.101273
2431.430908	122.616631
2430.717041	126.099709
2430.003174	108.568413
2429.289307	115.554260
2428.575195	105.032455
2427.861084	112.016617
2427.146729	90.998878
2426.432373	87.484863
2425.717773	111.962624
2425.003174	87.456741
2424.288330	108.428932
2423.573486	108.411507
2422.858643	80.421417
2422.143555	90.896553
2421.428223	90.881943
2420.712891	80.382637
2419.997559	90.852722
2419.281982	94.331894
2418.566162	122.262421
2417.850586	104.779510
2417.134521	94.286392
2416.418457	87.288177
2415.702393	122.183792
2414.986084	94.240913
2414.269775	69.796852
2413.553223	69.785629
2412.836670	101.172882
2412.120117	73.251335
2411.403076	111.603127
2410.686279	94.149986
2409.969238	62.756561
2409.251953	90.633781
2408.534668	108.045967
2407.817383	121.967751
2407.099854	73.168869
2406.382080	76.640770
2405.664307	94.043983
2404.946533	107.959045
2404.228516	104.459679
2403.510498	80.072861
2402.792236	90.502579
2402.073975	87.007698
2401.355469	83.513939
2400.636963	86.979683
2399.918213	90.444305
2399.199463	118.254272
2398.480469	107.802711
2397.761475	93.877563
2397.042480	100.815216
2396.323242	90.371498
2395.603760	38.227936
2394.884277	93.817093
2394.164795	79.905388
2393.445068	118.101982
2392.725098	83.352669
2392.005127	90.284180
2391.285156	86.797722
2390.564941	97.197784
2389.844727	121.477646
2389.124268	114.517609
2388.403809	100.620468
2387.683105	90.196915
2386.962402	93.650932
2386.241455	65.891884
2385.520508	76.283562
2384.799316	86.671890
2384.078125	65.860016
2383.356689	93.575462
2382.635254	83.164780
2381.913818	86.616005
2381.192139	69.281631
2380.470215	117.759781
2379.748291	93.500038
2379.026367	83.097740
2378.304199	86.546181
2377.581787	86.532219
2376.859375	110.743378
2376.136963	93.424652
2375.414307	65.732666
2374.691650	89.935448
2373.968750	89.920937
2373.245850	79.532608
2372.522705	131.380493
2371.799316	82.963768
2371.076172	110.600502
2370.352783	100.215530
2369.629150	93.289047
2368.905518	86.364807
2368.181641	124.345245
2367.457764	79.429970
2366.733643	86.322990
2366.009521	69.047241
2365.285400	107.005943
2364.561035	117.342400
2363.836426	75.915176
2363.111816	82.803185
2362.387207	75.890656
2361.662354	86.225456
2360.937256	127.593063
2360.212158	65.510178
2359.487061	130.999191
2358.761719	120.637657
2358.036377	110.279465
2357.310791	106.815971
2356.584961	110.243835
2355.859375	68.891266
2355.133301	96.432182
2354.407471	137.737991
2353.681152	117.058372
2352.955078	99.827774
2352.228516	106.695198
2351.502197	92.913055
2350.775635	103.220039
2350.048828	89.442902
2349.322021	120.384445
2348.594971	147.876984
2347.867920	113.468636
2347.140869	99.698738
2346.413330	92.807953
2345.686035	89.356163
2344.958496	96.214157
2344.230713	92.762932
2343.502930	103.053253
2342.775146	109.905685
2342.047119	96.151917
2341.319092	113.303574
2340.590820	102.986588
2339.862305	78.943604
2339.133789	109.816811
2338.405273	85.780502
2337.676514	78.905289
2336.947754	113.193619
2336.218750	75.450203
2335.489746	113.156982
2334.760498	113.138664
2334.031250	92.553017
2333.301758	116.529381
2332.572266	109.656952
2331.842529	92.508080
2331.112793	85.641754
2330.382813	116.453934
2329.652832	116.435074
2328.922607	109.568207
2328.192383	116.397369
2327.462158	82.149544
2326.731689	116.359673
2326.000977	119.762611
2325.270264	109.479507
2324.539307	116.303139
2323.808350	95.763535
2323.077393	92.328453
2322.346191	133.341705
2321.614746	105.972389
2320.883301	123.044769
2320.151855	102.520691
2319.420166	102.504082
2318.688232	116.152466
2317.956299	133.212112
2317.224365	112.699677
2316.492188	105.852234
2315.760010	92.178932
2315.027588	102.404434
2314.295166	102.387833
2313.562500	102.371231
2312.829590	102.354637
2312.096924	95.515503
2311.363770	119.375015
2310.630615	132.996307
2309.897461	129.565125
2309.164063	105.680725
2308.430664	129.523102
2307.697021	115.870293
2306.963379	126.073692
2306.229492	119.239548
2305.495605	122.626495
2304.761719	115.795120
2304.027344	108.965965
2303.293213	146.399261
2302.558838	88.506119
2301.824219	115.719986
2301.089600	129.313110
2300.354736	115.682426
2299.619873	102.056160
2298.885010	105.440918
2298.149658	119.026871
2297.414551	91.805824
2296.679199	115.588562
2295.943604	129.166245
2295.208008	95.159676
2294.472412	101.940239
2293.736572	112.116058
2293.000488	135.876175
2292.264404	112.079643
2291.528320	91.686630
2290.791992	112.043236
2290.055420	105.235641
2289.318848	156.130753
2288.582275	88.233482
2287.845459	88.219147
2287.108398	101.774780
2286.371582	78.014656
2285.634277	125.481445
2284.896973	111.897697
2284.159668	98.318359
2283.422119	122.030540
2282.684570	125.399895
2281.946777	121.990883
2281.208740	155.851898
2280.470703	159.214096
2279.732666	108.383469
2278.994385	142.230179
2278.256104	104.962349
2277.517578	125.257271
2276.779053	128.621689
2276.040283	128.600769
2275.301514	128.579849
2274.562500	128.558945
2273.823486	138.685776
2273.084229	121.753067
2272.344971	125.114746
2271.605469	118.332535
2270.865967	114.932907
2270.126221	125.053696
2269.386475	114.895508
2268.646484	101.361900
2267.906494	111.479942
2267.166260	104.706543
2266.426025	151.968628
2265.685547	114.802063
2264.945068	101.279449
2264.204346	114.764694
2263.463623	87.746948
2262.722656	124.850334
2261.981689	121.456223
2261.240723	124.809685
2260.499268	118.043991
2259.758057	114.652641
2259.016602	124.748734
2258.274902	128.099457
2257.533203	141.560547
2256.791260	128.057739
2256.049316	117.928703
2255.307129	124.647186
2254.564941	90.943939
2253.822754	131.342072
2253.080322	148.156662
2252.337646	111.099388
2251.594971	151.474487
2250.852051	148.084259
2250.109131	134.600113
2249.366211	100.933632
2248.623047	114.372810
2247.879639	104.264099
2247.136230	114.335533
2246.392578	100.867851
2245.648926	97.489693
2244.905273	104.196136
2244.161377	124.342857
2243.417236	67.201393
2242.673096	141.099930
2241.928955	97.410255
2241.184570	114.186501
2240.439941	134.315155
2239.695313	161.151901
2238.950439	100.703514
2238.205566	120.824501
2237.460693	137.583237
2236.715576	104.009384
2235.970215	120.765388
2235.224854	120.745689
2234.479492	150.907486
2233.733887	137.471054
2232.988037	140.801025
2232.242188	140.778046
2231.496338	110.593277
2230.750244	127.329048
2230.003906	134.008713
2229.257568	87.091446
2228.511230	110.521095
2227.764648	123.897362
2227.017822	110.485016
2226.270996	113.814461
2225.523926	127.183632
2224.776855	110.430908
2224.029785	130.487946
2223.282471	143.847839
2222.534912	107.032074
2221.787354	127.079826
2221.039795	123.715416
2220.291992	137.067657
2219.543945	133.702713
2218.795898	147.048950
2218.047852	140.341980
2217.299561	116.932541
2216.551025	120.253822
2215.802490	110.214661
2215.053955	120.214531
2214.305176	126.872383
2213.556152	120.175247
2212.807129	116.817947
2212.058105	106.787529
2211.308838	100.096947
2210.559326	106.752625
2209.809814	140.089905
2209.060303	96.712936
2208.310547	130.040955
2207.560547	120.018188
2206.810547	126.665146
2206.060303	129.977188
2205.310059	116.627121
2204.559814	109.944725
2203.809326	146.569000
2203.058594	143.214462
2202.307861	93.240669
2201.557129	119.861252
2200.806152	99.868042
2200.054932	126.478821
2199.303711	149.753052
2198.552246	143.073944
2197.800781	136.397018
2197.049316	89.807732
2196.297607	152.980728
2195.545654	119.704460
2194.793701	156.255249
2194.041504	129.637390
2193.289307	116.322197
2192.537109	119.626106
2191.784668	146.185745
2191.031982	126.230667
2190.279297	156.101837
2189.526367	99.623161
2188.773438	99.606850
2188.020508	139.426758
2187.267090	139.403915
2186.513916	99.557922
2185.760498	106.177727
2185.006836	136.017929
2184.253174	122.727783
2183.499268	116.074829
2182.745361	149.214615
2181.991211	132.613495
2181.237061	142.536148
2180.482666	125.941536
2179.728271	139.175735
2178.973877	99.394951
2178.218994	135.817505
2177.464355	125.859009
2176.709229	162.265274
2175.954346	119.195763
2175.198975	162.212082
2174.443848	165.495407
2173.688232	92.662239
2172.932861	162.132324
2172.177002	145.564346
2171.421387	152.155960
2170.665283	132.287827
2169.909424	148.799408
2169.153076	109.101669
2168.396729	135.528320
2167.640381	125.591019
2166.883789	115.656967
2166.127197	135.461655
2165.370361	138.742828
2164.613525	128.811493
2163.856445	108.976456
2163.099365	115.562134
2162.342041	151.856735
2161.584473	145.230438
2160.826904	132.005997
2160.069336	125.385124
2159.311523	141.859879
2158.553711	102.254288
2157.795654	135.217346
2157.037354	105.518166
2156.279053	112.094650
2155.520752	145.039856
2154.762207	135.128586
2154.003662	161.468613
2153.244873	112.021049
2152.485840	131.767838
2151.726807	151.508118
2150.967773	108.672760
2150.208252	138.288071
2149.448975	118.513168
2148.689453	121.785187
2147.929688	131.638031
2147.169922	144.778061
2146.410156	151.334015
2145.650146	121.705185
2144.889893	171.017014
2144.129639	144.682938
2143.369141	121.645203
2142.608643	154.496887
2141.847900	131.465103
2141.087158	134.729584
2140.326416	134.707443
2139.565186	170.820374
2138.804199	108.387421
2138.042725	160.912445
2137.281494	121.485336
2136.519775	144.445297
2135.758301	131.292313
2134.996338	131.270721
2134.234619	137.811600
2133.472412	157.473068
2132.710449	111.525078
2131.947998	124.625175
2131.185547	118.046532
2130.423096	147.533890
2129.660400	154.065613
2128.897705	124.543190
2128.134766	160.568741
2127.371826	140.884079
2126.608643	189.998428
2125.845215	186.691864
2125.081787	186.661148
2124.318359	124.420288
2123.554688	163.683960
2122.790771	124.379333
2122.026855	160.357483
2121.262939	127.610451
2120.498779	124.317924
2119.734375	137.381393
2118.969971	156.981461
2118.205322	163.495438
2117.440674	156.929764
2116.676025	127.484444
2115.911133	163.414673
2115.145996	133.977966
2114.380859	124.154251
2113.615479	199.267410
2112.850098	195.968445
2112.084473	150.217728
2111.318848	176.313507
2110.552979	159.961823
2109.787109	133.823547
2109.020996	172.962921
2108.254883	146.831116
2107.488525	166.381165
2106.722168	156.568237
2105.955566	176.110229
2105.188965	156.516632
2104.422119	163.011276
2103.655029	149.945663
2102.887939	143.402634
2102.120850	175.965134
2101.353516	169.419968
2100.585938	143.331726
2099.818359	166.107101
2099.050781	153.053848
2098.282959	159.540466
2097.514893	139.981812
2096.746826	185.526688
2095.978760	126.918373
2095.210449	175.704147
2094.441895	143.142731
2093.673340	159.382645
2092.904541	146.347672
2092.135742	162.581696
2091.366699	198.316940
2090.597656	162.528046
2089.828369	165.751251
2089.059082	168.973389
2088.289551	178.692352
2087.520020	185.159683
2086.750244	159.146088
2085.980469	181.851227
2085.210449	165.587173
2084.440186	126.604576
2083.670166	146.058090
2082.899658	129.807983
2082.129150	191.435150
2081.358643	145.985748
2080.587891	123.256500
2079.816895	158.909760
2079.045898	145.913437
2078.274902	162.099258
2077.503662	149.106689
2076.732178	116.672913
2075.960693	155.538193
2075.188965	161.992172
2074.417236	149.008179
2073.645264	132.789688
2072.873291	145.720703
2072.101074	152.172028
2071.328857	174.807053
2070.556396	181.251434
2069.783936	161.804886
2069.011230	184.427078
2068.238525	158.516373
2067.465576	164.959152
2066.692627	132.592300
2065.919434	206.939133
2065.145996	168.110245
2064.372559	132.526535
2063.599121	174.518295
2062.825439	148.639145
2062.051514	155.076065
2061.277588	142.129547
2060.503662	135.646683
2059.729248	171.144867
2058.955078	164.659332
2058.180664	167.860168
2057.406006	177.515045
2056.631348	183.939697
2055.856445	183.909256
2055.081543	170.975052
2054.306396	129.016418
2053.531250	148.344330
2052.755859	180.563217
2051.980225	161.190475
2051.204590	125.707756
2050.428955	167.582596
2049.653076	177.221481
2048.877197	199.743866
2048.101074	132.066818
2047.324707	154.589218
2046.548340	189.984451
2045.771851	177.074814
2044.995239	206.016571
2044.218506	164.142273
2043.441528	176.986862
2042.664551	170.522720
2041.887329	144.759460
2041.110107	176.898926
2040.332642	173.653809
2039.555176	199.347260
2038.777466	170.381531
2037.999634	151.068008
2037.221802	163.897705
2036.443726	173.509995
2035.665527	154.205536
2034.887207	205.573318
2034.108765	167.000641
2033.330200	147.706848
2032.551514	144.471878
2031.772705	215.066910
2030.993774	163.680511
2030.214600	182.906708
2029.435425	192.501450
2028.656128	137.936493
2027.876587	166.779266
2027.097046	208.439514
2026.317261	179.548874
2025.537476	160.284912
2024.757446	150.642822
2023.977295	176.254913
2023.197021	185.837982
2022.416626	169.789291
2021.636230	185.776337
2020.855591	188.948013
2020.074707	163.300842
2019.293823	179.280975
2018.512817	182.452148
2017.731689	160.019180
2016.950439	182.391586
2016.168945	179.161987
2015.387451	166.337097
2014.605713	175.904266
2013.823975	220.643250
2013.041992	191.831848
2012.260010	185.406662
2011.477783	210.944962
2010.695435	175.758286
2009.912964	162.948807
2009.130371	210.839905
2008.347656	220.386917
2007.564819	162.867630
2006.781860	217.120773
2005.998779	159.621109
2005.215576	194.705399
2004.432129	207.438492
2003.648682	220.167358
2002.864990	185.037460
2002.081299	210.524887
2001.297363	194.543701
2000.513428	181.756531
1999.729248	172.161774
1998.944946	200.822021
1998.160522	226.285614
1997.375977	191.195496
1996.591309	203.907959
1995.806519	213.430664
1995.021606	210.210175
1994.236572	213.359695
1993.451416	191.036621
1992.666016	159.170700
1991.880615	216.436157
1991.094971	200.488388
1990.309326	197.273224
1989.523438	187.696518
1988.737549	184.484528
1987.951416	187.634079
1987.165161	200.321701
1986.378784	193.930023
1985.592285	209.791016
1984.805664	206.577988
1984.018921	222.431580
1983.232056	212.863373
1982.444946	212.827942
1981.657837	187.384460
1980.870605	206.406158
1980.083130	203.196854
1979.295654	199.988602
1978.507935	215.824783
1977.720093	193.575287
1976.932129	180.851715
1976.144165	199.855453
1975.355957	222.024643
1974.567627	183.932648
1973.779053	193.414185
1972.990479	209.232956
1972.201782	190.180099
1971.412964	205.994125
1970.623901	205.959808
1969.834839	250.278687
1969.045532	196.388519
1968.256226	193.188782
1967.466675	212.155594
1966.677002	221.618164
1965.887207	193.092224
1965.097290	167.740692
1964.307251	221.507401
1963.517090	237.289795
1962.726807	218.270233
1961.936401	249.861938
1961.145874	202.386063
1960.355103	186.543549
1959.564331	249.737000
1958.773315	199.124146
1957.982178	221.212173
1957.191040	240.133163
1956.399658	192.706314
1955.608154	243.211670
1954.816528	211.590454
1954.024780	208.397614
1953.232910	236.775970
1952.440918	220.954041
1951.648682	189.357590
1950.856445	239.812927
1950.063965	233.463104
1949.271484	227.115387
1948.478760	236.539063
1947.685913	220.732941
1946.893066	211.237701
1946.099976	223.811554
1945.306763	233.229446
1944.513428	255.249084
1943.719971	255.206482
1942.926270	220.511993
1942.132568	220.475174
1941.338745	229.885727
1940.544678	261.333282
1939.750610	239.253174
1938.956299	229.770584
1938.161865	226.585205
1937.367310	242.279816
1936.572632	245.385315
1935.777832	220.180817
1934.982910	264.172852
1934.187866	267.273102
1933.392700	213.782761
1932.597290	260.897125
1931.801880	245.139465
1931.006226	232.529358
1930.210571	248.199326
1929.414673	245.016602
1928.618652	260.679230
1927.822510	251.215088
1927.026245	232.335114
1926.229858	207.183167
1925.433350	257.366364
1924.636719	241.632889
1923.839844	244.730057
1923.042969	250.963226
1922.245850	247.784744
1921.448730	241.471329
1920.651367	228.889084
1919.853882	247.660461
1919.056274	225.678116
1918.258545	256.979309
1917.460693	275.736542
1916.662720	244.361969
1915.864624	285.041260
1915.066284	256.807404
1914.267944	272.420807
1913.469360	275.505981
1912.670776	287.980774
1911.871948	256.635559
1911.072998	225.300842
1910.273926	247.163712
1909.474731	215.841034
1908.675415	247.080978
1907.875977	209.514618
1907.076294	259.504517
1906.276611	240.704849
1905.476807	250.041092
1904.676758	256.249207
1903.876587	284.326508
1903.076294	296.774658
1902.275879	249.873657
1901.475342	277.937866
1900.674683	268.524200
1899.873901	262.235535
1899.072998	280.919586
1898.271851	271.510101
1897.470703	296.426880
1896.669312	283.898163
1895.867920	296.327545
1895.066284	261.972046
1894.264526	283.755493
1893.462646	311.766968
1892.660645	258.723206
1891.858521	280.496216
1891.056152	261.752594
1890.253784	255.477554
1889.451172	292.815430
1888.648560	258.506439
1887.845703	317.629364
1887.042725	298.895142
1886.239624	283.280182
1885.436401	270.782898
1884.633057	239.618240
1883.829590	261.357880
1883.025879	326.642548
1882.222168	283.042725
1881.418213	286.105103
1880.614258	276.729156
1879.810059	282.900330
1879.005737	230.012207
1878.201294	285.913147
1877.396729	304.508545
1876.592041	310.670868
1875.787231	323.043488
1874.982178	332.306274
1874.177124	273.252747
1873.371826	276.311523
1872.566406	285.577454
1871.760986	273.115173
1870.955322	300.996887
1870.149536	316.459045
1869.343506	291.589752
1868.537476	276.033295
1867.731323	316.299652
1866.924927	313.146088
1866.118530	282.094147
1865.311890	313.040924
1864.505127	285.098297
1863.698242	285.050385
1862.891235	291.198212
1862.084106	322.122620
1861.276855	309.681274
1860.469482	334.399567
1859.661865	269.332184
1858.854126	331.191956
1858.046387	312.567902
1857.238403	324.892212
1856.430298	303.181793
1855.622070	296.944489
1854.813721	315.450470
1854.005249	296.844666
1853.196533	330.802490
1852.387817	358.566711
1851.578857	309.057251
1850.769775	336.815765
1849.960693	312.042877
1849.151367	349.058563
1848.341919	259.433533
1847.532227	274.829773
1846.722534	327.270294
1845.912720	311.780548
1845.102661	296.296021
1844.292603	277.730804
1843.482300	280.769440
1842.671875	351.673981
1841.861328	339.277435
1841.050659	323.801239
1840.239868	308.330261
1839.428833	351.437317
1838.617798	354.460449
1837.806519	298.929352
1836.995117	323.528870
1836.183716	304.990143
1835.372070	348.061462
1834.560303	326.445160
1833.748291	347.944275
1832.936279	326.335266
1832.124146	344.748993
1831.311768	332.380554
1830.499390	338.478729
1829.686768	366.110779
1828.874023	304.528259
1828.061157	326.005646
1827.248169	335.175751
1826.434937	310.523376
1825.621704	344.284729
1824.808228	331.932922
1823.994751	371.825165
1823.181030	344.110748
1822.367188	359.412262
1821.553223	365.494446
1820.739136	337.795074
1819.924927	340.808472
1819.110474	380.658813
1818.296021	377.525330
1817.481323	325.292206
1816.666626	322.169067
1815.851685	346.656830
1815.036621	328.194946
1814.221436	334.273041
1813.406006	404.739471
1812.590576	337.226013
1811.774902	395.407440
1810.959229	337.112274
1810.143311	333.991272
1809.327271	315.553192
1808.511108	343.067902
1807.694824	361.385559
1806.878418	339.890076
1806.061768	342.894287
1805.245117	376.507874
1804.428223	428.473236
1803.611206	358.020752
1802.794067	373.257782
1801.976807	339.546082
1801.159424	354.781067
1800.341919	376.126770
1799.524170	357.718719
1798.706421	351.544495
1797.888428	394.274658
1797.070313	348.369934
1796.252075	418.584381
1795.433716	360.471649
1794.615234	375.682434
1793.796509	348.134674
1792.977783	317.542908
1792.158813	360.228210
1791.339844	378.480927
1790.520630	372.313507
1789.701294	387.506775
1788.881714	347.781952
1788.062134	423.978271
1787.242432	399.509125
1786.422485	359.802368
1785.602417	378.033508
1784.782349	384.065918
1783.962036	344.381836
1783.141479	377.841858
1782.320923	353.405212
1781.500244	377.714142
1780.679321	371.559143
1779.858398	365.406219
1779.037231	383.611664
1778.215942	353.106567
1777.394531	368.264404
1776.572998	346.901154
1775.751221	352.927460
1774.929443	395.455261
1774.107422	361.932434
1773.285278	380.116791
1772.463013	373.971649
1771.640625	373.908386
1770.818115	404.239044
1769.995483	398.092896
1769.172607	401.063904
1768.349731	382.768921
1767.526611	364.480133
1766.703369	388.713013
1765.880005	388.647217
1765.056519	443.225708
1764.232910	400.656769
1763.409058	391.484650
1762.585083	418.726654
1761.761108	424.723206
1760.936890	409.485199
1760.112549	418.513977
1759.288086	451.797272
1758.463379	385.023743
1757.638672	403.145538
1756.813721	372.770691
1755.988647	409.069275
1755.163574	381.733307
1754.338257	421.047150
1753.512695	396.746979
1752.687134	399.707855
1751.861328	390.557404
1751.035522	432.870117
1750.209473	414.637451
1749.383301	411.541138
1748.557007	423.573486
1747.730591	417.451660
1746.903931	390.160431
1746.077271	426.382111
1745.250366	393.051636
1744.423340	426.237549
1743.596313	483.591827
1742.768921	432.136902
1741.941528	480.406403
1741.114014	428.969452
1740.286255	465.141479
1739.458374	407.684753
1738.630493	434.789978
1737.802368	470.942566
1736.973999	419.550720
1736.145630	386.283325
1735.317139	509.928162
1734.488403	440.454926
1733.659546	425.298676
1732.830566	419.194916
1732.001465	428.169617
1731.172241	458.244629
1730.342896	458.166840
1729.513306	427.951630
1728.683594	448.971619
1727.853882	436.844513
1727.023926	472.916870
1726.193726	457.778076
1725.363525	427.588501
1724.533203	427.515900
1723.702637	418.412811
1722.871948	424.361053
1722.041138	436.325531
1721.210205	502.441315
1720.379150	490.323486
1719.547974	424.072815
1718.716553	417.986572
1717.885010	405.889221
1717.053467	471.953918
1716.221558	432.801392
1715.389648	444.748077
1714.557617	408.617950
1713.725342	444.596924
1712.893066	471.553070
1712.060547	429.430756
1711.227905	450.375275
1710.395142	462.306671
1709.562256	462.228088
1708.729126	462.149506
1707.895874	471.072296
1707.062622	455.992462
1706.229126	455.914917
1705.395508	467.833099
1704.561646	464.755127
1703.727783	416.709503
1702.893677	497.568451
1702.059570	491.490021
1701.225220	482.417267
1700.390747	476.343475
1699.556030	461.285614
1698.721313	452.222595
1697.886353	479.094727
1697.051392	470.031708
1696.216187	490.904968
1695.380859	523.742371
1694.545410	511.684021
1693.709717	460.736420
1692.874023	511.509827
1692.038086	466.561127
1691.202026	475.452484
1690.365845	481.351074
1689.529541	478.279846
1688.692993	472.220947
1687.856445	475.128754
1687.019653	472.060120
1686.182739	531.723999
1685.345703	442.032288
1684.508545	504.667114
1683.671143	525.480957
1682.833740	489.569305
1681.996094	462.623871
1681.158325	519.244141
1680.320435	444.564301
1679.482422	539.949219
1678.644287	521.961365
1677.805908	500.997528
1676.967407	483.022400
1676.128784	524.675659
1675.290039	491.799591
1674.451172	512.576416
1673.612183	503.550262
1672.772949	527.297058
1671.933594	548.057129
1671.094116	446.709534
1670.254517	503.206940
1669.414795	434.649017
1668.574829	485.176086
1667.734863	520.805725
1666.894653	523.692444
1666.054321	517.653076
1665.213867	499.717682
1664.373169	517.476440
1663.532471	505.494202
1662.691528	478.651062
1661.850464	511.266663
1661.009277	531.983215
1660.167969	505.149261
1659.326538	519.917847
1658.484863	519.829102
1657.643066	490.040924
1656.801147	495.896149
1655.959106	540.345459
1655.116943	537.284790
1654.274658	516.417664
1653.432129	522.264282
1652.589478	507.340607
1651.746704	533.951538
1650.903809	513.099121
1650.060791	510.046112
1649.217529	509.958984
1648.374146	560.266174
1647.530640	494.965454
1646.687012	512.661072
1645.843262	488.870667
1644.999390	503.598877
1644.155273	521.283875
1643.311035	485.658783
1642.466675	497.419098
1641.622192	500.294403
1640.777588	535.726685
1639.932739	541.553772
1639.087769	523.708374
1638.242798	502.910736
1637.397461	520.571533
1636.552124	535.268982
1635.706665	470.128265
1634.860962	517.348267
1634.015137	511.348297
1633.169189	466.931854
1632.323120	487.535339
1631.476929	505.177460
1630.630493	567.119812
1629.783936	561.116272
1628.937256	540.351135
1628.090454	528.449768
1627.243530	504.745514
1626.396484	489.903046
1625.549194	525.227844
1624.701782	442.531982
1623.854248	516.198975
1623.006592	510.212219
1622.158691	533.714478
1621.310791	524.778564
1620.462646	518.793335
1619.614380	533.440430
1618.765991	536.295837
1617.917358	571.558105
1617.068726	544.949219
1616.219849	544.855896
1615.370850	580.098511
1614.521729	538.780945
1613.672363	532.801392
1612.822998	515.051208
1611.973389	523.790955
1611.123657	582.544067
1610.273804	597.152466
1609.423828	570.579956
1608.573608	514.610229
1607.723389	570.384399
1606.872925	573.226318
1606.022339	549.615112
1605.171509	587.722900
1604.320679	505.355072
1603.469604	569.895813
1602.618408	549.238403
1601.767090	578.510254
1600.915649	534.369629
1600.064087	569.505127
1599.212280	572.342590
1598.360352	528.225647
1597.508301	551.607727
1596.656128	528.044495
1595.803833	542.619324
1594.951294	542.526245
1594.098633	551.229431
1593.245850	518.887573
1592.392944	556.902405
1591.539795	539.223511
1590.686646	580.151855
1589.833252	562.474976
1588.979736	623.888550
1588.126099	506.639435
1587.272217	573.897644
1586.418335	550.378723
1585.564209	579.554749
1584.709961	541.410217
1583.855591	529.613098
1583.000977	544.149841
1582.146362	552.831543
1581.291504	567.359314
1580.436523	508.781281
1579.581421	567.164490
1578.726074	593.374329
1577.870605	537.744446
1577.015137	537.652100
1576.159424	593.068604
1575.303467	543.309448
1574.447510	549.057129
1573.591309	586.922974
1572.734985	636.453857
1571.878540	545.855164
1571.021973	598.294556
1570.165161	586.519714
1569.308350	598.088928
1568.451294	583.401123
1567.594116	542.469788
1566.736694	571.536560
1565.879272	574.353821
1565.021606	574.255066
1564.163818	553.754883
1563.305908	562.401672
1562.447876	547.737427
1561.589600	611.729187
1560.731201	611.623962
1559.872681	544.542908
1559.014038	605.590637
1558.155273	596.753479
1557.296265	611.203308
1556.437134	570.358276
1555.577881	645.906921
1554.718506	625.432861
1553.859009	578.789429
1552.999268	616.493652
1552.139404	607.665100
1551.279419	633.723450
1550.419312	619.081909
1549.558960	592.821472
1548.698608	615.963379
1547.838013	580.997498
1546.977173	580.897461
1546.116333	615.645264
1545.255249	534.241638
1544.394165	661.881104
1543.532837	592.107422
1542.671265	658.751160
1541.809692	626.721375
1540.947876	670.128235
1540.085938	594.600098
1539.223877	635.097534
1538.361694	646.586121
1537.499268	727.646423
1536.636841	669.551270
1535.774170	730.293701
1534.911377	727.270325
1534.048340	761.908936
1533.185303	892.119812
1532.322021	967.261902
1531.458618	1004.736633
1530.594971	1210.108154
1529.731323	1345.940796
1528.867432	1496.196655
1528.003418	1325.222290
1527.139282	1261.347778
1526.275024	1081.795288
1525.410522	942.792664
1524.545898	841.427429
1523.681152	742.988159
1522.816284	757.312561
1521.951172	682.041748
1521.086060	647.250000
1520.220703	638.471313
1519.355225	661.469238
1518.489502	664.243164
1517.623779	583.278137
1516.757813	614.934631
1515.891724	658.126343
1515.025513	617.608459
1514.159058	608.845276
1513.292480	643.360535
1512.425781	605.750610
1511.558960	588.341858
1510.692017	637.260315
1509.824829	614.086060
1508.957520	602.449890
1508.090088	685.924927
1507.222534	625.294128
1506.354736	622.305115
1505.486938	645.242004
1504.618896	642.250549
1503.750610	604.705444
1502.882324	567.173340
1502.013794	664.946228
1501.145142	636.050781
1500.276367	595.655029
1499.407471	655.970398
1498.538330	635.721130
1497.669067	635.611267
1496.799683	647.003723
1495.930176	629.641418
1495.060547	618.034302
1494.190674	629.423767
1493.320679	689.660278
1492.450562	637.825439
1491.580200	583.135925
1490.709717	606.011902
1489.839233	654.724243
1488.968384	620.157837
1488.097534	683.203857
1487.226440	648.644409
1486.355347	642.793030
1485.483887	622.598022
1484.612427	639.702026
1483.740845	653.932007
1482.869019	628.010193
1481.997070	670.908508
1481.124878	736.725037
1480.252686	696.471619
1479.380249	676.291565
1478.507690	701.960876
1477.635010	701.839355
1476.762207	673.076355
1475.889160	756.005920
1475.015991	724.380310
1474.142700	712.804199
1473.269165	758.475525
1472.395630	792.684326
1471.521851	786.824707
1470.647949	812.434631
1469.773804	818.014343
1468.899658	903.663513
1468.025269	923.521362
1467.150757	929.078796
1466.276001	1017.522339
1465.401245	1071.642700
1464.526245	1202.889038
1463.651123	1288.382324
1462.775879	1259.596802
1461.900391	1467.847046
1461.024780	1544.684204
1460.149048	1664.315674
1459.273193	1869.533203
1458.397217	1709.398926
1457.520996	1691.983032
1456.644653	1720.217407
1455.768188	1602.976074
1454.891479	1602.698120
1454.014648	1542.543335
1453.137695	1502.364868
1452.260620	1476.451660
1451.383423	1487.594849
1450.505981	1470.240967
1449.628418	1472.834839
1448.750732	1247.562378
1447.872803	1295.758911
1446.994873	1244.282227
1446.116699	1041.941162
1445.238403	979.140930
1444.359863	998.891968
1443.481201	1024.326782
1442.602417	1001.390137
1441.723511	978.461426
1440.844482	947.009033
1439.965210	1040.676147
1439.085815	1034.809692
1438.206299	1048.842041
1437.326538	1128.233032
1436.446777	1082.574707
1435.566772	1156.250366
1434.686646	1144.687988
1433.806274	1167.208496
1432.925781	1025.034302
1432.045166	1107.185425
1431.164429	979.263184
1430.283569	996.120789
1429.402466	834.212646
1428.521240	808.535034
1427.639893	774.356873
1426.758301	757.206482
1425.876709	714.542603
1424.994873	748.438354
1424.112793	739.804810
1423.230713	708.502136
1422.348389	677.210327
1421.465942	657.261414
1420.583374	733.625488
1419.700562	702.345520
1418.817627	756.022827
1417.934570	727.580811
1417.051392	718.962646
1416.167969	662.236206
1415.284546	718.712585
1414.400757	678.980408
1413.516968	729.776978
1412.633057	633.494629
1411.748901	692.764221
1410.864624	703.952148
1409.980103	686.869934
1409.095459	666.967529
1408.210815	686.630920
1407.325806	714.763000
1406.440796	683.567322
1405.555542	638.261719
1404.670166	663.563721
1403.784668	669.094543
1402.899048	632.283081
1402.013184	680.150452
1401.127197	640.528137
1400.241089	620.668091
1399.354736	643.125793
1398.468262	713.519714
1397.581665	682.378296
1396.694946	690.717224
1395.807983	642.677917
1394.920898	653.839111
1394.033691	673.449646
1393.146362	678.966919
1392.258789	721.100647
1391.371094	692.811951
1390.483276	675.796326
1389.595337	692.570496
1388.707153	658.671814
1387.818848	728.915649
1386.930420	664.069946
1386.041748	669.580933
1385.152954	697.592957
1384.264038	689.034180
1383.375000	736.716309
1382.485718	756.267700
1381.596313	742.081238
1380.706787	719.468445
1379.817139	713.723145
1378.927246	747.312012
1378.037231	806.169678
1377.147095	780.752930
1376.256714	744.113098
1375.366333	811.362915
1374.475586	760.695435
1373.584839	836.338379
1372.693970	791.296204
1371.802856	819.213379
1370.911499	849.925842
1370.020142	827.341125
1369.128540	844.021118
1368.236816	835.463074
1367.344971	804.483398
1366.453003	784.724854
1365.560791	795.796265
1364.668457	896.515320
1363.775879	896.358826
1362.883301	896.202271
1361.990479	963.249268
1361.097534	971.479980
1360.204346	990.904480
1359.311035	1038.308960
1358.417603	1060.513062
1357.524048	1060.327881
1356.630249	1060.142578
1355.736450	1031.990234
1354.842285	905.979431
1353.948120	905.821106
1353.053711	852.552979
1352.159180	852.403992
1351.264526	857.843628
1350.369751	866.075073
1349.474731	776.538025
1348.579590	835.051331
1347.684204	862.828674
1346.788818	834.759460
1345.893188	946.267456
1344.997314	873.539612
1344.101440	1046.390015
1343.205322	1096.425049
1342.309082	1241.281982
1341.412720	1229.909180
1340.516113	1260.366699
1339.619385	1212.751343
1338.722534	1187.452271
1337.825439	1240.196777
1336.928223	1192.609741
1336.030884	1145.039307
1335.133423	1125.340576
1334.235718	1141.853638
1333.337891	1155.576416
1332.439941	1227.759155
1331.541870	1269.297485
1330.643555	1402.662109
1329.745117	1494.241455
1328.846436	1555.185791
1327.947754	1518.752808
1327.048828	1526.830200
1326.149780	1379.189697
1325.250488	1220.480469
1324.351074	1156.334717
1323.451538	1100.548950
1322.551880	1053.118652
1321.651978	1005.704956
1320.751953	972.196350
1319.851807	910.927246
1318.951416	874.670166
1318.050903	855.083252
1317.150269	891.018250
1316.249512	824.255615
1315.348511	849.084229
1314.447388	893.324219
1313.546021	812.727112
1312.644653	757.118103
1311.743042	801.350830
1310.841309	901.015137
1309.939331	853.735413
1309.037231	872.985413
1308.135010	853.436096
1307.232666	900.383423
1306.330078	999.942810
1305.427368	941.609192
1304.524536	1024.512695
1303.621460	957.889771
1302.718262	979.865601
1301.814941	874.528870
1300.911499	935.249695
1300.007813	918.486450
1299.104004	918.325256
1298.199951	904.336365
1297.295898	848.876282
1296.391602	909.548157
1295.487061	884.511658
1294.582520	842.902222
1293.677734	892.490540
1292.772827	798.403992
1291.867676	762.355774
1290.962402	787.077026
1290.057007	728.953857
1289.151489	737.107971
1288.245728	786.662476
1287.339844	709.251770
1286.433838	706.367981
1285.527588	692.450073
1284.621216	703.361572
1283.714722	711.511414
1282.808105	672.784058
1281.901245	656.124878
1280.994263	711.136475
1280.087036	661.406067
1279.179810	683.332825
1278.272217	680.457825
1277.364624	688.601501
1276.456787	658.187317
1275.548828	622.276917
1274.640747	666.214783
1273.732544	693.622375
1272.824097	690.748474
1271.915405	707.136047
1271.006714	632.734192
1270.097778	665.629333
1269.188721	649.011963
1268.279541	665.395264
1267.370117	698.267212
1266.460571	678.904175
1265.550781	703.517822
1264.640991	670.422485
1263.730957	667.557373
1262.820679	650.959900
1261.910400	661.830139
1260.999878	675.442139
1260.089233	658.851990
1259.178345	697.162292
1258.267334	760.157349
1257.356201	724.354614
1256.444824	688.564392
1255.533447	754.270447
1254.621704	792.530090
1253.709961	781.423218
1252.797974	745.648010
1251.885864	718.108032
1250.973633	712.500793
1250.061157	668.536865
1249.148560	662.940247
1248.235840	660.084534
1247.322876	607.937561
1246.409790	700.921631
1245.496582	665.210754
1244.583130	640.460449
1243.669556	626.664978
1242.755859	599.194092
1241.841919	656.535339
1240.927856	588.042603
1240.013672	642.630920
1239.099365	626.112976
1238.184814	642.404419
1237.270142	609.493347
1236.355225	628.514587
1235.440186	622.939392
1234.525024	557.268555
1233.609741	652.763245
1232.694214	636.263611
1231.778564	576.085632
1230.862671	649.688110
1229.946777	625.009827
1229.030640	682.204773
1228.114258	676.627808
1227.197876	698.331238
1226.281128	679.116455
1225.364380	730.807617
1224.447388	766.122009
1223.530273	768.712708
1222.613037	839.438782
1221.695557	855.640442
1220.777954	912.703674
1219.860229	871.682495
1218.942261	896.040344
1218.024170	879.543884
1217.105957	939.285034
1216.187500	887.399597
1215.268921	870.913269
1214.350220	878.922852
1213.431274	848.840515
1212.512207	829.649475
1211.593018	747.912476
1210.673706	774.972412
1209.754150	810.178894
1208.834351	761.107422
1207.914551	728.359802
1206.994507	706.492859
1206.074219	703.651245
1205.153931	700.810547
1204.233398	727.845154
1203.312744	686.986084
1202.391846	681.434875
1201.470825	637.884033
1200.549683	692.049683
1199.628296	632.231628
1198.706787	645.684692
1197.785156	659.132935
1196.863281	642.744385
1195.941284	631.784607
1195.019165	666.916443
1194.096802	658.666809
1193.174438	696.491455
1192.251709	628.628174
1191.328979	628.516968
1190.406006	644.657654
1189.482788	579.547607
1188.559570	657.967957
1187.636108	622.657837
1186.712402	633.374573
1185.788696	635.968750
1184.864746	616.915771
1183.940552	630.333069
1183.016357	724.889954
1182.091919	667.970581
1181.167236	681.371582
1180.242554	689.361084
1179.317505	616.260803
1178.392456	683.712158
1177.467163	686.293030
1176.541748	688.872925
1175.616211	718.461792
1174.690430	734.537537
1173.764526	812.708252
1172.838501	812.564270
1171.912231	858.304504
1170.985840	984.986328
1170.059204	1165.585449
1169.132446	1178.867065
1168.205566	1300.030273
1167.278564	1332.160034
1166.351318	1248.341675
1165.423828	1258.903320
1164.496338	1115.832153
1163.568604	1059.044189
1162.640747	983.416260
1161.712646	967.079041
1160.784424	942.667542
1159.856079	926.343201
1158.927490	974.641785
1157.998779	952.933716
1157.069946	933.924744
1156.140869	976.814270
1155.211670	1000.855225
1154.282349	1016.817627
1153.352783	1094.633179
1152.423096	1172.421143
1151.493164	1123.818970
1150.563232	1115.555298
1149.632935	1131.483032
1148.702637	1058.729736
1147.772095	1015.555298
1146.841431	1001.944153
1145.910522	902.395386
1144.979492	891.494324
1144.048340	840.325867
1143.116943	869.703613
1142.185425	864.181580
1141.253784	850.611572
1140.321899	743.146912
1139.389893	756.426697
1138.457764	718.745972
1137.525391	643.538757
1136.592896	630.019775
1135.660278	597.742371
1134.727417	629.795959
1133.794434	597.529968
1132.861206	621.535095
1131.927856	629.460266
1130.994385	565.074524
1130.060669	607.815735
1129.126831	631.801880
1128.192871	620.982971
1127.258667	596.786987
1126.324341	577.951050
1125.389893	617.976624
1124.455200	575.070801
1123.520386	625.779724
1122.585327	585.561462
1121.650146	617.537170
1120.714844	577.334656
1119.779297	523.784607
1118.843628	539.722778
1117.907837	593.055176
1116.971802	563.569275
1116.035645	520.741516
1115.099365	550.018799
1114.162842	560.598999
1113.226196	571.175415
1112.289307	597.759460
1111.352417	562.967834
1110.415161	634.893372
1109.477905	666.786133
1108.540405	642.667358
1107.602661	671.881104
1106.664917	647.770020
1105.726807	660.980896
1104.788696	679.516602
1103.850342	650.088379
1102.911865	684.602295
1101.973145	655.183533
1101.034302	601.809326
1100.095337	617.676575
1099.156128	590.947266
1098.216797	553.581665
1097.277344	580.092834
1096.337646	606.594482
1095.397827	577.226074
1094.457764	603.718750
1093.517700	563.724976
1092.577271	598.186401
1091.636841	566.182190
1090.696167	555.450623
1089.755249	573.951904
1088.814209	549.939209
1087.873047	555.153625
1086.931763	602.858398
1085.990234	573.542664
1085.048584	584.059692
1084.106689	568.029480
1083.164673	559.966553
1082.222412	602.320984
1081.280151	535.890503
1080.337524	583.539001
1079.394897	554.263123
1078.452026	559.467224
1077.509033	596.481873
1076.565796	561.918152
1075.622437	532.666992
1074.678955	535.221497
1073.735229	545.722534
1072.791382	606.544434
1071.847290	582.602417
1070.903076	571.907532
1069.958740	571.805481
1069.014160	600.817871
1068.069458	592.771729
1067.124512	552.978394
1066.179565	571.397156
1065.234253	563.360474
1064.288940	573.837463
1063.343384	597.530457
1062.397583	586.849854
1061.451660	599.959961
1060.505615	615.707947
1059.559448	628.808167
1058.613037	575.864258
1057.666382	586.325745
1056.719727	602.064819
1055.772827	615.158020
1054.825684	649.364075
1053.878418	607.020447
1052.931030	606.911926
1051.983398	625.271362
1051.035645	630.435181
1050.087769	627.685181
1049.139648	619.662354
1048.191406	656.460999
1047.242920	632.620300
1046.294312	658.861633
1045.345581	687.728516
1044.396606	756.102600
1043.447510	758.601379
1042.498291	734.763611
1041.548828	755.696899
1040.599121	797.683594
1039.649414	787.012268
1038.699341	794.766418
1037.749268	826.198669
1036.798950	810.266418
1035.848511	825.902954
1034.897827	767.899658
1033.947021	767.762207
1032.996094	762.367065
1032.044922	738.575134
1031.093506	730.559143
1030.142090	648.977661
1029.190430	654.115417
1028.238525	659.251282
1027.286499	651.255127
1026.334351	638.010681
1025.381958	609.020386
1024.429443	577.415894
1023.476807	614.050537
1022.523926	587.703735
1021.570923	629.569702
1020.617737	553.397522
1019.664368	587.387817
1018.710815	582.038940
1017.757080	605.526611
1016.803223	579.209473
1015.849121	605.309509
1014.894897	652.359558
1013.940491	623.428650
1012.985962	589.270142
1012.031189	659.864258
1011.076294	596.912964
1010.121216	594.188354
1009.165955	649.040894
1008.210510	612.291626
1007.254944	654.040405
1006.299133	643.460327
1005.343201	651.190552
1004.387085	643.229431
1003.430786	653.571167
1002.474365	674.364441
1001.517700	689.923462
1000.560913	734.218567
999.603943	768.048096
998.646790	739.178894
997.689514	801.721558
996.731995	772.856567
995.774353	746.612488
994.816528	775.189148
993.858521	741.125244
992.900330	644.454468
991.942017	709.555176
990.983459	665.088501
990.024780	597.168274
989.065918	625.740845
988.106873	643.875916
987.147705	617.697083
986.188293	620.191956
985.228760	630.502014
984.269043	653.832947
983.309143	653.715454
982.349060	635.370178
981.388794	611.824402
980.428406	734.057312
979.467834	655.848206
978.507019	754.610291
977.546082	868.946594
976.585022	959.831299
975.623718	1118.301514
974.662292	1183.106201
973.700623	1266.086060
972.738831	1325.642212
971.776855	1294.217773
970.814758	1101.706055
969.852417	1062.539551
968.889954	937.671753
967.927246	882.966919
966.964417	804.913208
966.001404	812.556458
965.038208	721.565674
964.074890	643.583008
963.111328	713.522095
962.147644	674.481262
961.183777	697.703125
960.219727	663.865601
959.255493	630.040222
958.291077	684.364929
957.326538	723.119080
956.361755	712.623413
955.396851	722.858643
954.431763	758.994446
953.466492	717.418396
952.501038	792.384460
951.535461	704.214844
950.569641	732.562134
949.603699	696.196899
948.637573	646.906555
947.671265	675.248779
946.704773	698.407349
945.738098	685.350342
944.771240	721.427490
943.804260	762.662231
942.837097	819.390991
941.869751	726.206177
940.902222	801.008301
939.934509	818.947937
938.966614	754.226135
937.998535	751.507629
937.030334	751.372131
936.061951	735.747192
935.093323	655.600342
934.124573	619.353149
933.155640	670.844849
932.186584	668.144165
931.217285	639.651978
930.247864	660.166748
929.278198	631.686218
928.308411	644.461487
927.338440	639.190430
926.368286	633.921265
925.397949	584.854309
924.427429	662.028259
923.456787	597.520752
922.485901	618.013367
921.514893	623.050964
920.543701	602.345459
919.572327	643.415283
918.600769	663.884705
917.629028	602.019226
916.657104	607.055054
915.685059	627.519836
914.712769	637.691833
913.740356	678.710632
912.767761	611.757385
911.794983	614.216797
910.822021	644.939575
909.848877	624.270935
908.875549	670.392090
907.902039	649.726196
906.928406	667.582153
905.954590	682.864441
904.980530	716.108032
904.006348	692.882507
903.031982	618.350037
902.057434	738.807495
901.082703	728.414551
900.107849	735.975952
899.132751	797.376770
898.157532	802.359497
897.182068	745.828674
896.206482	697.005859
895.230713	732.748596
894.254761	704.438538
893.278625	655.649597
892.302307	655.530945
891.325806	637.490906
890.349182	696.249634
889.372314	673.090088
888.395325	655.056580
887.418091	654.938049
886.440735	698.303589
885.463196	644.471252
884.485474	708.278625
883.507568	715.819946
882.529480	677.349731
881.551270	682.338257
880.572815	682.214722
879.594238	705.083008
878.615417	669.196716
877.636475	671.629211
876.657349	679.167358
875.677979	722.441895
874.698486	742.729675
873.718811	699.213257
872.739014	765.423279
871.758972	793.344971
870.778748	770.246826
869.798401	742.057007
868.817810	718.976440
867.837097	703.551514
866.856140	723.813110
865.875061	731.326416
864.893799	695.525818
863.912354	741.250244
862.930725	730.928711
861.948914	771.537415
860.966919	730.663635
859.984741	722.894897
859.002441	766.027832
858.019897	773.522339
857.037231	839.526489
856.054321	798.677246
855.071289	775.644470
854.088074	757.705322
853.104614	841.459595
852.121033	871.807434
851.137268	871.649231
850.153320	846.083130
849.169189	975.486328
848.184937	904.192932
847.200439	954.816956
846.215759	949.565674
845.230896	1081.394531
844.245911	1164.952881
843.260681	1337.295654
842.275330	1413.165894
841.289795	1524.521484
840.304016	1613.010864
839.318115	1409.860229
838.332031	1351.293213
837.345764	1133.055054
836.359314	1120.177490
835.372681	1084.499634
834.385864	1013.366943
833.398865	1035.979370
832.411743	977.543701
831.424377	997.622314
830.436829	987.314697
829.449158	949.168457
828.461243	971.771851
827.473206	981.715942
826.484924	973.948242
825.496521	908.010010
824.507935	877.499084
823.519104	960.775269
822.530151	862.012573
821.541016	841.636292
820.551697	889.495728
819.562195	876.701355
818.572510	937.167236
817.582642	906.689575
816.592590	881.273193
815.602356	997.248047
814.611938	1057.647827
813.621399	1188.690918
812.630615	1327.256104
811.639648	1541.456055
810.648560	1831.249390
809.657227	2090.674072
808.665771	2347.482666
807.674072	2339.492188
806.682251	2049.203613
805.690186	1665.777222
804.697998	1438.707397
803.705566	1262.103516
802.713013	1078.007813
801.720276	994.709229
800.727356	929.065430
799.734253	808.064148
798.740906	873.355652
797.747437	923.524902
796.753784	898.197021
795.759949	898.033325
794.765930	852.598938
793.771729	804.666443
792.777344	804.519775
791.782776	804.373169
790.788025	786.634033
789.793091	761.363159
788.798035	768.761230
787.802734	763.597351
786.807251	743.367126
785.811584	738.209717
784.815796	780.752869
783.819763	727.900452
782.823547	787.996765
781.827148	742.689453
780.830627	719.976318
779.833862	727.369446
778.836975	694.636475
777.839844	714.567749
776.842529	744.518921
775.845093	761.927429
774.847412	691.623657
773.849609	711.540833
772.851563	693.876160
771.853394	763.875793
770.854980	711.151184
769.856445	673.467407
768.857666	748.438599
767.858765	708.259033
766.859680	743.160828
765.860352	775.548096
764.860901	730.382874
763.861206	687.734924
762.861389	665.105713
761.861389	684.983704
760.861145	672.361145
759.860779	677.236328
758.860168	752.069702
757.859436	637.019043
756.858521	674.367493
755.857361	694.221863
754.856079	686.604736
753.854614	636.553467
752.852905	746.253662
751.851074	738.631104
750.848999	845.777588
749.846802	883.039856
748.844421	1012.566711
747.841797	1132.072021
746.839050	1104.440918
745.836121	1004.533325
744.832947	819.928101
743.829651	784.893921
742.826111	759.837585
741.822449	679.992493
740.818604	689.829529
739.814514	769.380188
738.810303	697.045410
737.805847	716.829773
736.801270	701.767395
735.796448	746.424377
734.791504	711.460999
733.786316	756.099792
732.781006	773.368347
731.775452	725.987854
730.769775	755.684570
729.763855	795.311768
728.757751	738.013550
727.751526	722.971741
726.745056	695.515503
725.738403	702.838684
724.731628	697.743774
723.724609	717.476868
722.717407	717.345459
721.710083	769.329895
720.702515	736.932617
719.694763	704.547180
718.686829	763.946289
717.678711	781.165527
716.670410	751.269104
715.661987	676.761963
714.653320	738.601013
713.644470	733.509460
712.635437	713.554016
711.626221	696.083069
710.616821	745.489563
709.607178	732.971619
708.597412	735.312927
707.587463	769.832947
706.577332	732.568298
705.567017	772.024963
704.556458	752.091431
703.545776	714.850464
702.534912	732.030823
701.523804	702.225037
700.512573	754.011719
699.501099	704.439026
698.489502	783.390137
697.477661	728.888489
696.465698	733.695435
695.453491	763.199524
694.441101	753.181641
693.428589	701.194458
692.415833	698.597107
691.402893	725.617798
690.389771	732.887451
689.376465	747.555908
688.362976	732.618225
687.349304	786.741699
686.335449	798.926270
685.321411	710.026245
684.307190	793.702881
683.292725	901.993408
682.278137	1042.276245
681.263367	1221.924316
680.248352	1258.646362
679.233215	1157.446289
678.217834	938.097778
677.202332	876.381653
676.186584	819.610779
675.170654	753.017395
674.154541	755.339294
673.138306	755.200378
672.121826	740.304626
671.105164	764.758789
670.088318	740.032288
669.071289	754.644958
668.054016	710.268005
667.036621	692.936768
666.019043	732.117554
665.001282	702.507080
663.983276	704.833618
662.965149	697.337708
661.946777	763.493347
660.928223	743.716736
659.909546	797.569092
658.890625	723.814087
657.871521	750.665527
656.852234	765.243530
655.832764	774.911682
654.813110	767.413574
653.793274	757.466858
652.773254	769.581848
651.752991	676.323120
650.732605	725.198425
649.711975	685.872192
648.691223	737.176758
647.670227	724.797729
646.649048	771.179810
645.627747	807.753784
644.606201	778.237488
643.584473	785.434570
642.562561	790.182556
641.540466	841.401550
640.518127	767.881897
639.495667	828.866211
638.473022	809.156738
637.450134	804.119263
636.427063	769.759460
635.403870	764.731079
634.380432	769.475586
633.356812	730.256409
632.333008	732.563599
631.309021	744.635620
630.284851	742.057251
629.260498	790.730896
628.235901	841.826599
627.211182	785.559875
626.186218	753.705627
625.161133	741.372864
624.135803	758.304016
623.110291	763.039673
622.084595	777.523132
621.058716	818.807312
620.032654	774.799561
619.006409	728.372009
617.979919	793.998108
616.953308	771.935364
615.926453	835.094421
614.899414	800.861023
613.872253	861.557556
612.844849	883.298340
611.817261	832.044739
610.789490	778.377563
609.761475	785.529663
608.733337	824.289063
607.705017	831.429993
606.676453	853.152039
605.647705	843.273621
604.618774	804.242004
603.589722	840.532654
602.560425	803.944702
601.530884	781.940613
600.501221	825.498962
599.471375	771.941528
598.441284	871.307495
597.411011	866.293152
596.380615	839.445374
595.349976	805.330383
594.319153	875.513550
593.288147	868.077209
592.256897	792.761841
591.225525	814.430298
590.193970	840.937561
589.162170	797.167908
588.130188	903.612793
587.098022	842.892883
586.065674	820.942017
585.033142	794.156738
584.000427	796.430481
582.967468	798.703369
581.934387	832.433655
580.901062	737.922241
579.867554	805.516724
578.833862	834.389832
577.799988	858.416077
576.765930	785.728271
575.731628	819.423279
574.697205	853.105713
573.662537	831.201111
572.627747	833.462952
571.592712	857.462402
570.557434	806.589844
569.522034	842.657715
568.486450	758.010010
567.450623	796.487122
566.414673	832.536743
565.378479	788.953735
564.342102	815.342346
563.305542	769.366821
562.268799	894.614929
561.231812	870.339905
560.194702	829.200623
559.157349	857.967102
558.119812	930.095154
557.082092	910.649658
556.044189	903.254700
555.006042	905.495361
553.967773	926.997437
552.929260	885.900696
551.890625	832.784729
550.851746	844.662415
549.812683	846.911682
548.773376	904.487793
547.733948	858.622864
546.694275	937.817261
545.654419	863.112610
544.614441	918.239014
543.574158	855.582153
542.533752	896.272217
541.493164	958.568909
540.452332	939.175049
539.411316	941.402161
538.370178	934.024048
537.328735	984.264099
536.287170	981.681091
535.245422	988.697998
534.203430	1079.687988
533.161255	1072.290771
532.118896	961.764404
531.076355	966.381653
530.033630	1040.525269
528.990723	966.022461
527.947571	994.602539
526.904236	984.832886
525.860718	982.254089
524.817017	996.443237
523.773132	929.202148
522.729004	1005.650391
521.684692	969.553955
520.640198	1000.489380
519.595520	933.297302
518.550659	1021.650879
517.505615	980.793762
516.460327	997.353455
515.414856	1011.515625
514.369202	875.049316
513.323364	894.009705
512.277283	908.183044
511.231079	946.246216
510.184631	919.790405
509.138000	869.458130
508.091187	831.085449
507.044159	792.727051
505.996948	837.937927
504.949554	887.905640
503.901947	911.604309
502.854126	863.715454
501.806152	894.566284
500.757965	870.549011
499.709564	927.617798
