#Wave		#Intensity
3200.600830	16.839409
3200.007080	4.209852
3199.413086	8.418432
3198.819092	4.208580
3198.224854	-8.415888
3197.630615	8.414616
3197.036377	8.413343
3196.442139	16.824142
3195.847656	0.000000
3195.252930	8.409529
3194.658447	16.816513
3194.063721	12.610478
3193.468750	16.811428
3192.873779	16.808887
3192.278809	0.000000
3191.683838	-12.602853
3191.088623	16.801262
3190.493164	25.198082
3189.897949	16.796181
3189.302490	37.785690
3188.706787	16.791100
3188.111328	12.591420
3187.515381	16.786020
3186.919678	-4.195870
3186.323730	8.390471
3185.727783	12.583802
3185.131592	16.775864
3184.535400	0.000000
3183.939209	-4.192697
3183.342773	4.192062
3182.746338	16.765713
3182.149902	16.763174
3181.553223	20.950798
3180.956543	25.137152
3180.359619	8.377783
3179.762695	4.188257
3179.165771	-4.187623
3178.568604	12.560967
3177.971436	12.559066
3177.374268	20.928608
3176.776855	8.370175
3176.179443	4.184454
3175.581787	8.367641
3174.984131	12.549562
3174.386475	16.730215
3173.788574	8.363840
3173.190674	4.181287
3172.592773	4.180654
3171.994629	20.900103
3171.396484	8.358774
3170.798340	20.893770
3170.199951	4.178121
3169.601563	29.242418
3169.002930	4.176856
3168.404297	-8.352446
3167.805664	29.229130
3167.206787	20.874786
3166.607910	8.348649
3166.008789	4.173692
3165.409912	25.038357
3164.810547	12.517282
3164.211426	20.858974
3163.612061	8.342325
3163.012695	33.364243
3162.413086	25.019390
3161.813477	16.677065
3161.213623	8.337268
3160.614014	12.504006
3160.013916	25.004221
3159.414063	4.166739
3158.813965	29.162746
3158.213867	12.496426
3157.613525	8.329687
3157.013184	12.492636
3156.412598	4.163580
3155.812256	24.977694
3155.211426	20.811588
3154.610840	16.646746
3154.010010	0.000000
3153.409180	20.802120
3152.808105	16.639172
3152.207031	0.000000
3151.605957	4.158531
3151.004639	8.315800
3150.403320	24.943615
3149.801758	41.566383
3149.200195	20.780039
3148.598633	24.932262
3147.996826	8.309493
3147.395020	4.154116
3146.793213	16.613943
3146.191162	-4.152855
3145.589111	12.456676
3144.986816	4.151595
3144.384766	-4.150965
3143.782227	0.000000
3143.179932	16.598818
3142.577393	20.745373
3141.974609	8.296889
3141.371826	24.886889
3140.769043	20.735926
3140.166260	4.146555
3139.563232	0.000000
3138.960205	0.000000
3138.356934	33.157333
3137.753662	12.432112
3137.150391	16.573631
3136.546875	0.000000
3135.943359	0.000000
3135.339600	16.566080
3134.735840	4.140891
3134.132080	4.140262
3133.528076	4.139633
3132.924072	16.556017
3132.320068	16.553501
3131.715820	16.550985
3131.111572	-4.137118
3130.507080	4.136489
3129.902588	20.679302
3129.298096	0.000000
3128.693604	-4.134604
3128.088867	24.803850
3127.483887	8.266693
3126.878906	-12.398155
3126.273926	8.264180
3125.668945	8.262924
3125.063721	41.308342
3124.458252	41.302059
3123.853027	24.777470
3123.247559	8.257900
3122.641846	16.513290
3122.036133	16.510778
3121.430420	33.016537
3120.824707	8.252879
3120.218750	33.006496
3119.612549	16.500738
3119.006592	8.249114
3118.400391	20.619648
3117.793945	4.123302
3117.187500	20.613377
3116.581055	-4.122048
3115.974609	20.607105
3115.367920	24.724764
3114.760986	32.961334
3114.154297	28.836781
3113.547363	4.118913
3112.940186	16.473146
3112.333008	4.117660
3111.725830	12.351100
3111.118408	24.698441
3110.510986	20.578901
3109.903564	12.345461
3109.295898	12.343582
3108.688232	24.683407
3108.080566	32.906200
3107.472656	0.000000
3106.864746	-8.224045
3106.256592	8.222793
3105.648438	28.775394
3105.040039	28.771013
3104.431885	20.547594
3103.823486	4.108893
3103.214844	16.433069
3102.606201	20.538208
3101.997559	4.107016
3101.388672	28.744734
3100.779785	45.163418
3100.170898	24.630838
3099.561768	16.418058
3098.952637	-16.415556
3098.343262	20.516319
3097.733887	20.513195
3097.124512	20.510069
3096.514893	20.506945
3095.905273	8.201528
3095.295410	12.300417
3094.685791	8.199028
3094.075684	20.494448
3093.465820	24.589588
3092.855713	8.195280
3092.245361	12.291047
3091.635254	8.192782
3091.024658	16.383068
3090.414307	0.000000
3089.803711	4.094518
3089.193115	16.375576
3088.582275	8.186540
3087.971436	16.370583
3087.360596	28.644152
3086.749512	8.182796
3086.138428	24.544643
3085.527100	-4.090150
3084.915771	16.358105
3084.304443	0.000000
3083.692871	-4.088279
3083.081299	-4.087656
3082.469482	16.348127
3081.857910	4.086409
3081.245850	28.600496
3080.634033	0.000000
3080.021973	20.422693
3079.409668	16.335661
3078.797607	16.333170
3078.185059	4.082669
3077.572754	20.410231
3076.960205	24.488541
3076.347656	-4.080801
3075.734863	24.481066
3075.122070	4.079555
3074.509033	24.473595
3073.895996	20.391548
3073.282959	4.077687
3072.669922	28.539454
3072.056641	12.229327
3071.443115	4.075820
3070.829834	12.225594
3070.216064	20.372879
3069.602539	20.369768
3068.988770	16.293325
3068.375000	28.508966
3067.760986	8.144175
3067.146973	12.214396
3066.532715	0.000000
3065.918701	12.210666
3065.304199	-8.139201
3064.689941	4.068979
3064.075439	24.410143
3063.460693	8.135471
3062.846191	24.402685
3062.231445	8.132986
3061.616455	32.526974
3061.001465	8.130501
3060.386475	16.258516
3059.771240	16.256033
3059.156006	12.190162
3058.540771	12.188298
3057.925293	20.310726
3057.309814	20.307623
3056.694092	24.365421
3056.078369	8.120565
3055.462646	4.059662
3054.846680	16.236166
3054.230713	12.175263
3053.614502	8.115602
3052.998291	12.171541
3052.382080	0.000000
3051.765625	8.111879
3051.149170	36.497875
3050.532715	8.109399
3049.916016	20.270397
3049.299316	0.000000
3048.682373	36.475555
3048.065430	8.104439
3047.448486	8.103200
3046.831299	-4.050980
3046.214111	32.402882
3045.596680	8.099482
3044.979248	20.245605
3044.361816	16.194008
3043.744141	0.000000
3043.126465	16.189053
3042.508545	-4.046644
3041.890869	16.184097
3041.272705	12.136216
3040.654785	4.044786
3040.036621	16.176668
3039.418213	32.348385
3038.799805	24.257576
3038.181396	16.169241
3037.562988	16.166767
3036.944336	16.164291
3036.325439	20.202272
3035.706543	36.358521
3035.087646	24.235304
3034.468750	36.347389
3033.849609	24.227882
3033.230469	16.149448
3032.611084	20.183720
3031.991699	4.036126
3031.372070	20.177538
3030.752441	24.209337
3030.132813	20.171358
3029.513184	24.201921
3028.893066	16.132143
3028.273193	16.129671
3027.653076	32.254402
3027.032959	8.062365
3026.412598	12.091695
3025.792480	20.149736
3025.171875	-4.029330
3024.551270	32.229698
3023.930664	16.112379
3023.310059	12.082433
3022.689209	16.107441
3022.068115	36.236191
3021.447266	32.205009
3020.826172	12.075027
3020.204834	20.121962
3019.583496	12.071326
3018.962158	20.115791
3018.340576	40.225418
3017.718994	36.197323
3017.097412	32.170467
3016.475586	24.124151
3015.853760	12.060225
3015.231689	12.058376
3014.609619	8.037684
3013.987549	16.072905
3013.365234	24.105658
3012.742920	4.016994
3012.120361	0.000000
3011.497803	32.126091
3010.875244	32.121162
3010.252441	8.029058
3009.629639	28.097395
3009.006836	12.039893
3008.383789	16.050728
3007.760498	48.144794
3007.137451	24.068705
3006.514160	24.065010
3005.890625	16.040878
3005.267090	32.076832
3004.643555	48.107864
3004.019775	24.050241
3003.395996	32.062065
3002.772217	44.078575
3002.148193	28.045696
3001.524170	12.017738
3000.899902	24.031788
3000.275635	24.028097
2999.651367	8.008137
2999.026855	20.017267
2998.402344	20.014193
2997.777588	40.022240
2997.152832	40.016094
2996.528076	20.004974
2995.903076	36.003422
2995.278076	35.997894
2994.653076	11.997455
2994.027832	11.995612
2993.402344	0.000000
2992.777100	35.975780
2992.151367	19.983475
2991.525879	39.960808
2990.900146	31.963736
2990.274414	11.984559
2989.648438	31.953913
2989.022461	19.968126
2988.396240	31.944094
2987.770264	23.954388
2987.143799	43.909630
2986.517578	35.920540
2985.891113	67.839478
2985.264404	79.798882
2984.637695	39.893307
2984.010986	43.875893
2983.384033	55.833462
2982.757080	43.862404
2982.130127	35.881905
2981.502930	47.835182
2980.875732	59.784782
2980.248291	63.760632
2979.620850	63.750824
2978.993408	63.741020
2978.365723	75.680824
2977.738037	75.669182
2977.110107	75.657547
2976.482178	47.776363
2975.854248	51.749763
2975.226074	95.523331
2974.597900	95.508636
2973.969482	87.536110
2973.341309	91.500946
2972.712646	95.464554
2972.083984	67.610321
2971.455322	127.246910
2970.826660	127.227325
2970.197754	147.083954
2969.568604	147.061325
2968.939697	162.934753
2968.310547	127.149017
2967.681152	154.939011
2967.051758	174.776077
2966.422363	174.749176
2965.792725	194.577087
2965.163086	174.695374
2964.533203	242.154037
2963.903564	194.487228
2963.273438	218.268372
2962.643311	226.170578
2962.013184	238.037628
2961.383057	241.967651
2960.752686	269.692902
2960.122314	273.616821
2959.491699	285.469208
2958.861084	218.033173
2958.230225	301.235809
2957.599609	277.411285
2956.968506	289.255768
2956.337646	257.516815
2955.706299	261.438354
2955.075195	281.200928
2954.443848	296.997467
2953.812500	265.276855
2953.180908	292.947205
2952.549316	332.483429
2951.917725	340.347229
2951.285889	352.165527
2950.653809	363.980164
2950.021973	340.189880
2949.389893	375.733215
2948.757568	359.857391
2948.125244	371.663513
2947.492920	359.746460
2946.860352	308.306549
2946.227783	292.450867
2945.595215	268.697205
2944.962402	284.459045
2944.329590	256.763702
2943.696533	252.774506
2943.063477	225.092575
2942.430420	252.696533
2941.797119	221.075363
2941.163574	217.094101
2940.530273	181.541611
2939.896729	197.297394
2939.262939	189.376282
2938.629150	232.739090
2937.995361	185.373718
2937.361328	157.740524
2936.727295	189.259430
2936.093262	201.057114
2935.458984	220.734528
2934.824707	224.641541
2934.190186	204.904510
2933.555664	220.632339
2932.921143	259.990845
2932.286377	267.828003
2931.651367	283.538818
2931.016602	248.058167
2930.381592	311.009033
2929.746338	314.897247
2929.111084	350.269104
2928.475830	354.150024
2927.840332	358.029724
2927.204834	381.577148
2926.569336	432.649536
2925.933594	420.785004
2925.297607	475.767487
2924.661865	444.243164
2924.025879	444.174561
2923.389648	444.105927
2922.753418	412.601074
2922.117188	436.110901
2921.480713	432.115204
2920.844238	451.687012
2920.207764	459.471436
2919.571045	459.400421
2918.934082	431.848206
2918.297363	482.810181
2917.660156	459.187500
2917.023193	447.344299
2916.385986	447.275177
2915.748779	455.051758
2915.111328	427.525665
2914.473877	431.381226
2913.836182	458.761810
2913.198486	443.009155
2912.560791	442.940674
2911.922852	423.276062
2911.284912	481.989899
2910.646729	474.079346
2910.008545	434.831970
2909.370361	470.015930
2908.731934	524.769958
2908.093506	567.760254
2907.455078	552.012512
2906.816406	583.242188
2906.177490	641.858521
2905.538574	641.759216
2904.899658	684.698120
2904.260498	598.529175
2903.621338	657.106873
2902.982178	684.380432
2902.342773	688.184631
2901.703369	731.083069
2901.063721	727.060974
2900.424072	695.681885
2899.784424	734.651428
2899.144531	703.280823
2898.504639	664.106873
2897.864502	679.627686
2897.224365	659.995972
2896.583984	632.560974
2895.943848	601.230286
2895.303223	538.681396
2894.662842	585.432617
2894.021973	612.657898
2893.381348	647.678162
2892.740479	624.171448
2892.099609	639.676636
2891.458496	627.877991
2890.817383	666.773376
2890.176025	690.062012
2889.534668	752.323975
2888.893311	724.925293
2888.251709	740.400391
2887.610107	779.248108
2886.968262	825.875061
2886.326416	763.426575
2885.684570	806.147034
2885.042480	798.234436
2884.400391	918.800720
2883.758057	813.557617
2883.115723	844.567688
2882.473389	949.504944
2881.830811	949.357788
2881.188232	863.626099
2880.545410	937.394714
2879.902588	956.694458
2879.259766	933.215759
2878.616699	843.651794
2877.973633	882.392944
2877.330322	804.524292
2876.687012	784.969666
2876.043457	738.223328
2875.399902	788.611023
2874.756348	695.268372
2874.112549	733.996399
2873.468750	683.403870
2872.824707	768.710083
2872.180664	679.310120
2871.536621	636.511902
2870.892334	655.815979
2870.248047	729.433655
2869.603760	690.526855
2868.958984	663.268372
2868.314453	736.850525
2867.669678	717.348389
2867.024902	713.360168
2866.379883	686.114990
2865.734863	767.399353
2865.089844	744.029358
2864.444580	751.662964
2863.799316	701.184937
2863.153809	732.062927
2862.508301	666.112610
2861.862549	580.821960
2861.216797	611.704163
2860.571045	545.803162
2859.925049	468.311554
2859.279053	429.541443
2858.632813	386.914185
2857.986572	410.065338
2857.340332	363.586395
2856.693848	320.989197
2856.047363	317.072601
2855.400635	282.228119
2854.753906	274.453217
2854.107178	255.085892
2853.460205	247.317596
2852.813232	224.096756
2852.166016	254.967041
2851.518799	227.889679
2850.871338	216.268463
2850.223877	250.986893
2849.576416	266.390839
2848.928711	227.748077
2848.281006	247.010376
2847.633301	266.266693
2846.985352	289.375336
2846.337158	262.326202
2845.688965	316.285370
2845.040771	335.518890
2844.392578	393.305847
2843.743896	404.810730
2843.095459	412.457275
2842.446777	431.663849
2841.798096	481.692810
2841.149170	439.235535
2840.500244	477.690674
2839.851074	516.133850
2839.202148	535.309326
2838.552734	550.628296
2837.903320	558.242554
2837.253906	565.854431
2836.604492	569.615173
2835.954834	515.652405
2835.304932	527.114868
2834.655029	507.798096
2834.005127	453.870117
2833.354980	442.262238
2832.704834	365.290222
2832.054688	365.233368
2831.404297	365.176544
2830.753906	280.565674
2830.103271	288.207550
2829.452637	253.583191
2828.801758	222.811142
2828.150879	207.412582
2827.500000	168.976532
2826.848877	176.629791
2826.197754	122.853775
2825.546387	142.027557
2824.895020	99.787613
2824.243408	95.934692
2823.591797	107.430122
2822.940186	95.904816
2822.288330	92.054291
2821.636475	92.039955
2820.984619	76.688019
2820.332520	103.512703
2819.680176	61.331306
2819.028076	72.819588
2818.375488	91.968307
2817.723145	88.122566
2817.070557	68.954742
2816.417725	57.453335
2815.764893	88.081390
2815.112061	65.093491
2814.458984	45.941189
2813.805908	68.901047
2813.152832	45.926872
2812.499512	57.399643
2811.845947	68.868835
2811.192383	68.858109
2810.538818	72.672226
2809.885010	68.836639
2809.231201	45.883942
2808.577393	76.461319
2807.923340	68.804459
2807.269287	45.862488
2806.614990	57.319172
2805.960693	38.206821
2805.306152	42.020954
2804.651611	64.931343
2803.997070	61.102325
2803.342285	30.546398
2802.687500	26.723930
2802.032471	45.805305
2801.377441	53.431190
2800.722412	45.791019
2800.067139	38.153229
2799.411621	30.517822
2798.756348	38.141327
2798.100586	34.321838
2797.445068	34.316486
2796.789307	53.372871
2796.133301	41.929283
2795.477539	57.167374
2794.821289	34.295071
2794.165283	34.289719
2793.509033	53.331238
2792.852539	64.749252
2792.196045	45.698223
2791.539551	7.615181
2790.882813	34.262966
2790.226074	38.064022
2789.569092	57.087116
2788.912109	22.831282
2788.255127	38.046196
2787.597900	30.432205
2786.940430	3.803432
2786.283203	34.225540
2785.625488	34.220192
2784.968018	34.214851
2784.310303	60.816898
2783.652588	26.603237
2782.994629	41.798557
2782.336426	49.390579
2781.678467	34.188137
2781.020264	60.769413
2780.361816	41.772446
2779.703369	56.953526
2779.044922	30.370468
2778.386230	22.774292
2777.727539	11.385366
2777.068604	15.178117
2776.409668	18.969681
2775.750732	49.313461
2775.091553	60.684006
2774.432373	26.545103
2773.772949	11.374694
2773.113525	49.282635
2772.453857	30.323036
2771.794189	49.267227
2771.134521	22.735167
2770.474609	15.154408
2769.814697	26.516066
2769.154541	18.937086
2768.494385	30.294600
2767.833984	37.862328
2767.173584	22.713844
2766.513184	34.065437
2765.852539	37.844566
2765.191895	30.270916
2764.531006	34.049454
2763.870117	30.261446
2763.209229	37.820889
2762.548096	52.940964
2761.886719	37.809055
2761.225586	45.363770
2760.563965	30.237780
2759.902588	30.233049
2759.240967	37.785397
2758.579102	37.779484
2757.917236	41.550926
2757.255371	33.990894
2756.593262	41.537922
2755.931152	33.980251
2755.269043	45.299911
2754.606689	52.841621
2753.944092	33.964294
2753.281494	67.917953
2752.618896	41.498920
2751.956055	52.808537
2751.293213	60.343163
2750.630371	56.562855
2749.967285	41.472931
2749.303955	67.854172
2748.640625	52.767197
2747.977295	26.379467
2747.313721	45.214859
2746.650146	22.603888
2745.986572	56.500870
2745.322754	48.959747
2744.658691	56.483166
2743.994873	60.239269
2743.330566	41.408009
2742.666504	60.220394
2742.002197	60.210957
2741.337646	79.014496
2740.673096	60.192085
2740.008545	75.228317
2739.343750	48.890739
2738.678955	71.444496
2738.013916	78.952591
2737.348877	60.144924
2736.683594	52.618561
2736.018311	48.852432
2735.353027	97.689545
2734.687500	63.863914
2734.021973	82.634460
2733.356201	90.132545
2732.690430	90.118416
2732.024658	82.595589
2731.358643	78.828880
2730.692383	97.582352
2730.026367	71.298996
2729.359863	112.559700
2728.693604	86.282234
2728.027100	105.022766
2727.360352	112.506737
2726.693604	138.736542
2726.026855	112.471436
2725.359863	97.459946
2724.692871	134.923370
2724.025635	119.913063
2723.358398	131.134323
2722.691162	153.590393
2722.023682	138.584198
2721.355957	127.327660
2720.688477	164.751099
2720.020508	123.543930
2719.352783	131.010880
2718.684814	130.990311
2718.016602	119.743759
2717.348389	104.759338
2716.680176	104.742889
2716.011719	138.388519
2715.343262	112.189278
2714.674561	115.910721
2714.005859	104.677109
2713.337158	97.184906
2712.668213	97.169640
2711.999023	82.207550
2711.329834	104.611359
2710.660645	108.330452
2709.991455	119.518272
2709.321777	93.358978
2708.652344	85.876770
2707.982666	93.329643
2707.312988	85.849777
2706.643066	82.104279
2705.972900	89.554222
2705.302979	89.540154
2704.632813	55.953800
2703.962402	55.945004
2703.291992	74.581612
2702.621582	85.755371
2701.950928	70.830261
2701.280273	59.637157
2700.609375	78.261459
2699.938477	55.892254
2699.267334	37.255642
2698.596191	52.149700
2697.925049	52.141499
2697.253662	55.857105
2696.582031	59.571541
2695.910645	63.284809
2695.239014	52.108704
2694.567139	55.821972
2693.895264	40.929672
2693.223145	52.084118
2692.551270	44.636505
2691.878906	59.505978
2691.206543	40.903923
2690.534180	40.897484
2689.861816	55.760521
2689.189209	48.318180
2688.516357	66.891571
2687.843506	52.018589
2687.170654	52.010399
2686.497559	26.001106
2685.824463	51.994030
2685.151123	48.272568
2684.477783	44.552280
2683.804199	70.530006
2683.130615	48.249775
2682.457031	63.085922
2681.783203	48.234581
2681.109375	25.968376
2680.435303	29.673471
2679.761230	37.085999
2679.086914	33.372143
2678.412598	51.904045
2677.738281	63.016411
2677.063721	37.062637
2676.389160	62.996559
2675.714355	62.986637
2675.039551	55.567688
2674.364502	59.262863
2673.689453	51.846836
2673.014404	33.324856
2672.339111	40.723961
2671.663574	40.717545
2670.988037	44.412140
2670.312500	55.506424
2669.636719	55.497677
2668.960938	44.391144
2668.285156	36.986790
2667.609131	59.169533
2666.932861	55.462692
2666.256592	44.363159
2665.580322	44.356163
2664.903809	62.827991
2664.227295	59.122902
2663.550781	51.724384
2662.874023	66.492287
2662.197021	62.788372
2661.520020	40.621361
2660.843018	44.307224
2660.165771	73.833725
2659.488525	51.675457
2658.811035	59.048347
2658.133545	55.349091
2657.455811	59.029716
2656.778076	70.086731
2656.100342	73.763863
2655.422363	40.563725
2654.744385	62.679501
2654.066162	66.356056
2653.387939	62.659718
2652.709473	51.593979
2652.031006	47.901131
2651.352539	55.261814
2650.673828	44.202473
2649.994873	58.927326
2649.316162	95.741791
2648.636963	58.908722
2647.958008	47.855778
2647.278809	62.570755
2646.599365	47.840668
2645.919922	44.153645
2645.240479	55.183338
2644.560791	58.852932
2643.880859	58.843639
2643.201172	62.511490
2642.520996	47.795353
2641.841064	62.491745
2641.160889	62.481873
2640.480469	40.423061
2639.800049	25.719702
2639.119629	25.715637
2638.438965	29.384657
2637.758301	22.035009
2637.077393	44.063057
2636.396484	44.056095
2635.715332	66.073700
2635.034180	29.361446
2634.353027	3.669601
2633.671631	36.690208
2632.989990	44.021290
2632.308350	36.678608
2631.626709	55.009216
2630.944824	25.666908
2630.262939	36.661213
2629.581055	40.320961
2628.898926	32.984661
2628.216553	47.636974
2627.534180	18.319016
2626.851807	29.305790
2626.169189	40.289089
2625.486572	14.648260
2624.803711	32.953373
2624.120850	43.930882
2623.437988	47.584259
2622.754883	36.597485
2622.071533	32.932526
2621.388184	25.610134
2620.704834	40.238129
2620.021240	14.629731
2619.337646	40.225395
2618.653809	40.219028
2617.969971	43.868362
2617.286133	40.206299
2616.602051	36.545399
2615.917725	21.923767
2615.233398	29.227062
2614.549072	43.833652
2613.864502	51.131168
2613.179932	36.516479
2612.495117	54.766048
2611.810303	29.203934
2611.125488	40.149052
2610.440430	21.896015
2609.755127	43.785095
2609.069824	29.185440
2608.384521	29.180817
2607.698975	40.117268
2607.013428	21.878681
2606.327637	36.458691
2605.641846	25.517040
2604.956055	36.447140
2604.270020	32.797230
2603.583740	32.792034
2602.897461	40.072800
2602.211182	40.066452
2601.524658	14.567310
2600.838135	10.923751
2600.151367	21.844040
2599.464600	29.120770
2598.777832	36.395195
2598.090820	36.389423
2597.403564	29.106924
2596.716309	50.929043
2596.029053	36.372120
2595.341553	29.093084
2594.654053	58.176941
2593.966309	21.812893
2593.278564	32.714153
2592.590820	18.171646
2591.902832	29.070024
2591.214600	47.231297
2590.526367	29.060804
2589.838135	39.952267
2589.149658	54.471722
2588.461182	29.046978
2587.772461	14.521185
2587.083740	32.667480
2586.394775	32.662300
2585.705811	39.914253
2585.016846	43.535912
2584.327637	18.137085
2583.638184	25.387890
2582.948975	25.383862
2582.259277	54.385353
2581.569824	47.126492
2580.879883	36.245396
2580.190186	36.239643
2579.500244	36.233887
2578.810059	32.605324
2578.119873	25.355669
2577.429688	57.946613
2576.739258	39.831970
2576.048584	28.964108
2575.358154	28.959507
2574.667236	25.335545
2573.976563	10.856366
2573.285645	25.327497
2572.594482	32.558754
2571.903320	25.319452
2571.212158	36.164902
2570.520752	43.390987
2569.829102	14.461365
2569.137451	25.303368
2568.445801	21.685156
2567.753906	28.908945
2567.062012	25.291307
2566.370117	28.899759
2565.677979	36.118958
2564.985596	28.890574
2564.293213	43.328972
2563.600830	28.881392
2562.908203	10.828800
2562.215332	18.045132
2561.522705	14.433810
2560.829590	21.647274
2560.136719	36.073051
2559.443604	36.067318
2558.750244	21.636950
2558.056885	46.872601
2557.363525	10.815034
2556.669922	39.648819
2555.976074	7.207730
2555.282227	25.223042
2554.588379	36.027184
2553.894287	10.806437
2553.200195	3.601573
2552.505859	39.610992
2551.811523	14.401707
2551.117188	14.399415
2550.422607	46.790653
2549.727783	39.585793
2549.032959	53.972034
2548.338135	7.195126
2547.643066	43.163887
2546.947998	35.964180
2546.252686	43.150146
2545.557373	25.166912
2544.861816	28.757607
2544.166260	35.941288
2543.470703	35.935566
2542.774902	39.522827
2542.078857	28.739298
2541.382813	43.102085
2540.686768	28.730146
2539.990479	10.772090
2539.294189	35.901245
2538.597656	14.358212
2537.901123	32.300831
2537.204346	21.530457
2536.507568	25.114866
2535.810791	32.285397
2535.113770	25.106865
2534.416504	14.344494
2533.719238	39.441074
2533.021973	25.094866
2532.324463	17.922049
2531.626953	39.422222
2530.929199	25.082872
2530.231445	35.826965
2529.533447	25.074877
2528.835449	7.163109
2528.137451	3.580984
2527.439209	14.321651
2526.740723	25.058893
2526.042236	21.475628
2525.343750	21.472204
2524.645020	46.515690
2523.946289	42.930714
2523.247314	25.038923
2522.548340	14.305675
2521.849121	32.182636
2521.149902	28.602224
2520.450684	17.873539
2519.751221	35.741379
2519.051514	14.294271
2518.351807	32.156979
2517.652100	7.144855
2516.952148	28.574862
2516.252197	32.141590
2515.552002	35.707180
2514.851807	17.850740
2514.151367	17.847893
2513.450928	28.552073
2512.750244	17.842197
2512.049561	28.542959
2511.348877	46.374905
2510.647949	39.234043
2509.946777	21.396971
2509.245605	28.524740
2508.544434	17.825115
2507.843018	35.644539
2507.141602	21.383310
2506.439941	32.069843
2505.738281	32.064724
2505.036377	10.686534
2504.334473	7.123219
2503.632568	24.927282
2502.930420	14.241886
2502.228027	17.799515
2501.525635	21.356007
2500.823242	28.470125
2500.120605	14.232789
2499.417969	21.345774
2498.715088	21.342363
2498.012207	14.225968
2497.309082	28.447392
2496.605957	28.442844
2495.902588	7.109575
2495.199219	24.879536
2494.495605	39.090164
2493.791992	31.977751
2493.088379	28.420124
2492.384521	39.071423
2491.680664	7.102760
2490.976563	21.304873
2490.272461	17.751223
2489.568115	31.947090
2488.863770	39.040203
2488.159180	35.485416
2487.454590	39.027718
2486.749756	10.642220
2486.044922	21.281038
2485.339844	39.008995
2484.634766	28.365641
2483.929688	21.270828
2483.224365	35.445709
2482.519043	42.528046
2481.813477	31.890932
2481.107666	31.885830
2480.402100	42.507637
2479.696045	21.250418
2478.990234	28.329357
2478.284180	38.946632
2477.577881	31.860327
2476.871582	14.157879
2476.165039	21.233419
2475.458496	21.230021
2474.751953	10.613311
2474.045166	42.446449
2473.338379	21.219828
2472.631348	31.824644
2471.924072	10.606517
2471.217041	31.814455
2470.509521	14.137493
2469.802246	17.669037
2469.094482	-3.533242
2468.386963	7.065351
2467.679199	21.192659
2466.971191	45.910072
2466.263184	24.716848
2465.554932	45.895367
2464.846680	49.417862
2464.138428	21.175692
2463.429932	21.172298
2462.721436	7.056302
2462.012695	17.637928
2461.303955	31.743183
2460.594971	17.632277
2459.885986	21.155340
2459.176758	35.253250
2458.467529	28.198080
2457.758057	45.814533
2457.048584	38.759930
2456.338867	45.799847
2455.629150	31.702503
2454.919434	10.565807
2454.209473	21.128225
2453.499512	24.645645
2452.789307	14.080967
2452.078857	28.157419
2451.368408	28.152903
2450.657959	28.148388
2449.947266	21.107904
2449.236572	24.621939
2448.525879	45.719124
2447.814697	17.581457
2447.103760	38.673000
2446.392578	38.666798
2445.681152	7.029199
2444.969727	17.570177
2444.258301	28.107773
2443.546631	21.077448
2442.834717	7.024688
2442.122803	7.023561
2441.410889	38.623386
2440.698730	28.085226
2439.986572	38.610989
2439.274170	35.095264
2438.561768	28.071703
2437.849121	31.575598
2437.136475	52.617546
2436.423584	21.043638
2435.710693	28.053680
2434.997803	21.036882
2434.284424	28.044672
2433.571289	14.020083
2432.857910	42.053497
2432.144287	24.527266
2431.430908	35.033325
2430.717041	38.530464
2430.003174	21.013241
2429.289307	45.521378
2428.575195	17.505409
2427.861084	28.004154
2427.146729	13.999827
2426.432373	27.995155
2425.717773	20.992992
2425.003174	41.979237
2424.288330	27.981661
2423.573486	34.971455
2422.858643	27.972666
2422.143555	20.976128
2421.428223	24.468216
2420.712891	3.494897
2419.997559	55.909367
2419.281982	27.950190
2418.566162	48.904968
2417.850586	38.419155
2417.134521	38.412975
2416.418457	45.389851
2415.702393	27.927725
2414.986084	10.471212
2414.269775	10.469528
2413.553223	-6.978563
2412.836670	10.466161
2412.120117	3.488159
2411.403076	13.950391
2410.686279	24.409256
2409.969238	45.324184
2409.251953	27.887318
2408.534668	45.309597
2407.817383	31.363134
2407.099854	20.905392
2406.382080	34.836712
2405.664307	13.932442
2404.946533	34.825500
2404.228516	41.783871
2403.510498	24.370001
2402.792236	38.289551
2402.073975	24.362156
2401.355469	38.277222
2400.636963	38.271061
2399.918213	45.222153
2399.199463	-6.956134
2398.480469	20.865040
2397.761475	10.430840
2397.042480	34.763866
2396.323242	27.806614
2395.603760	24.326868
2394.884277	34.747070
2394.164795	13.896589
2393.445068	27.788702
2392.725098	20.838167
2392.005127	34.724686
2391.285156	17.359545
2390.564941	31.242146
2389.844727	20.824739
2389.124268	41.642769
2388.403809	41.636055
2387.683105	27.752897
2386.962402	55.496845
2386.241455	13.871975
2385.520508	13.869739
2384.799316	41.602509
2384.078125	27.730534
2383.356689	0.000000
2382.635254	13.860796
2381.913818	24.252481
2381.192139	13.856326
2380.470215	38.098751
2379.748291	51.944466
2379.026367	27.699245
2378.304199	24.232931
2377.581787	27.690311
2376.859375	10.382192
2376.136963	34.601723
2375.414307	41.515366
2374.691650	38.049614
2373.968750	17.292488
2373.245850	51.869095
2372.522705	27.659052
2371.799316	38.025059
2371.076172	13.825063
2370.352783	41.468494
2369.629150	3.455150
2368.905518	20.727554
2368.181641	24.178242
2367.457764	37.988247
2366.733643	17.264597
2366.009521	27.618896
2365.285400	31.066240
2364.561035	37.963718
2363.836426	41.408279
2363.111816	24.150928
2362.387207	6.899151
2361.662354	13.796073
2360.937256	24.139229
2360.212158	20.687424
2359.487061	31.026125
2358.761719	34.467903
2358.036377	31.016100
2357.310791	24.119736
2356.584961	10.335360
2355.859375	24.111942
2355.133301	27.552052
2354.407471	-3.443450
2353.681152	20.657360
2352.955078	44.750381
2352.228516	17.208902
2351.502197	13.764897
2350.775635	27.525343
2350.048828	37.841228
2349.322021	27.516445
2348.594971	34.389996
2347.867920	34.384434
2347.140869	24.065212
2346.413330	27.498652
2345.686035	13.747103
2344.958496	20.617319
2344.230713	27.485313
2343.502930	27.480867
2342.775146	13.738211
2342.047119	48.075958
2341.319092	37.767857
2340.590820	30.895975
2339.862305	41.187969
2339.133789	10.295326
2338.405273	27.449760
2337.676514	13.722659
2336.947754	17.150549
2336.218750	30.865992
2335.489746	20.573997
2334.760498	41.141335
2334.031250	37.706783
2333.301758	20.564009
2332.572266	34.267799
2331.842529	37.688477
2331.112793	27.405363
2330.382813	27.400925
2329.652832	44.519295
2328.922607	27.392052
2328.192383	30.811068
2327.462158	34.228977
2326.731689	44.490463
2326.000977	30.796101
2325.270264	20.527409
2324.539307	44.468845
2323.808350	30.781137
2323.077393	27.356579
2322.346191	41.028217
2321.614746	34.184643
2320.883301	23.925373
2320.151855	27.338852
2319.420166	30.751225
2318.688232	27.329992
2317.956299	44.404037
2317.224365	37.566559
2316.492188	30.731293
2315.760010	30.726311
2315.027588	30.721331
2314.295166	30.716351
2313.562500	51.185616
2312.829590	47.765495
2312.096924	20.467607
2311.363770	27.285719
2310.630615	47.742264
2309.897461	20.457651
2309.164063	37.499611
2308.430664	23.859518
2307.697021	40.895397
2306.963379	27.259176
2306.229492	37.475288
2305.495605	40.875500
2304.761719	13.622955
2304.027344	23.836304
2303.293213	40.855606
2302.558838	44.253059
2301.824219	20.421173
2301.089600	27.223812
2300.354736	47.633942
2299.619873	20.411232
2298.885010	30.611879
2298.149658	13.603071
2297.414551	13.600863
2296.679199	33.996635
2295.943604	23.793781
2295.208008	23.789919
2294.472412	6.796016
2293.736572	20.384737
2293.000488	30.572140
2292.264404	37.359882
2291.528320	27.166410
2290.791992	6.790499
2290.055420	13.578793
2289.318848	23.759027
2288.582275	13.574382
2287.845459	16.965219
2287.108398	40.709915
2286.371582	33.919415
2285.634277	10.174171
2284.896973	33.908394
2284.159668	44.073750
2283.422119	20.338425
2282.684570	27.113491
2281.946777	16.943178
2281.208740	40.657017
2280.470703	33.875340
2279.732666	40.643799
2278.994385	44.023624
2278.256104	27.087057
2277.517578	23.697321
2276.779053	16.923906
2276.040283	27.073847
2275.301514	10.151041
2274.562500	33.831303
2273.823486	33.825798
2273.084229	27.056238
2272.344971	50.722195
2271.605469	33.809296
2270.865967	43.944935
2270.126221	27.038637
2269.386475	27.034237
2268.646484	13.514919
2267.906494	50.672703
2267.166260	40.531567
2266.426025	37.147888
2265.685547	43.894905
2264.945068	40.511780
2264.204346	37.129753
2263.463623	20.249296
2262.722656	47.240665
2261.981689	37.111626
2261.240723	26.985878
2260.499268	26.981485
2259.758057	50.582047
2259.016602	40.459049
2258.274902	40.452461
2257.533203	20.222937
2256.791260	20.219643
2256.049316	20.216349
2255.307129	13.475371
2254.564941	13.473176
2253.822754	43.780689
2253.080322	53.875149
2252.337646	47.133076
2251.594971	40.393196
2250.852051	37.021065
2250.109131	26.920023
2249.366211	40.373455
2248.623047	50.458591
2247.879639	30.270222
2247.136230	30.265287
2246.392578	53.796188
2245.648926	43.702278
2244.905273	23.528160
2244.161377	26.884941
2243.417236	10.080210
2242.673096	40.314262
2241.928955	26.871794
2241.184570	47.017971
2240.439941	26.863031
2239.695313	67.146622
2238.950439	36.924622
2238.205566	13.424945
2237.460693	30.201199
2236.715576	16.775707
2235.970215	26.836752
2235.224854	36.894516
2234.479492	20.120998
2233.733887	46.941334
2232.988037	26.819242
2232.242188	46.926018
2231.496338	23.459181
2230.750244	36.858410
2230.003906	30.151958
2229.257568	40.196049
2228.511230	10.047373
2227.764648	23.440042
2227.017822	26.784246
2226.270996	33.474842
2225.523926	23.428564
2224.776855	33.463913
2224.029785	16.729225
2223.282471	26.762388
2222.534912	46.826530
2221.787354	43.474678
2221.039795	26.749279
2220.291992	56.832932
2219.543945	26.740541
2218.795898	36.762238
2218.047852	26.731806
2217.299561	26.727438
2216.551025	30.063456
2215.802490	26.718706
2215.053955	20.035755
2214.305176	26.709974
2213.556152	20.029207
2212.807129	33.376556
2212.058105	20.022661
2211.308838	33.365646
2210.559326	10.008059
2209.809814	16.677370
2209.060303	20.009573
2208.310547	30.009453
2207.560547	30.004547
2206.810547	23.333054
2206.060303	26.661987
2205.310059	19.993219
2204.559814	33.316586
2203.809326	29.980022
2203.058594	9.991706
2202.307861	19.980145
2201.557129	19.976875
2200.806152	43.276150
2200.054932	13.313560
2199.303711	9.983537
2198.552246	29.945709
2197.800781	16.633783
2197.049316	26.609699
2196.297607	23.279676
2195.545654	26.600990
2194.793701	36.570377
2194.041504	49.860531
2193.289307	9.970474
2192.537109	16.614737
2191.784668	33.224033
2191.031982	36.540455
2190.279297	26.570526
2189.526367	43.170036
2188.773438	26.561825
2188.020508	26.557476
2187.267090	-6.638282
2186.513916	36.504570
2185.760498	9.954162
2185.006836	26.540083
2184.253174	16.584835
2183.499268	29.847813
2182.745361	19.895283
2181.991211	23.207361
2181.237061	19.888763
2180.482666	33.142509
2179.728271	36.450787
2178.973877	46.384308
2178.218994	49.689331
2177.464355	49.681187
2176.709229	29.803827
2175.954346	29.798941
2175.198975	26.483606
2174.443848	6.619816
2173.688232	16.546827
2172.932861	46.323521
2172.177002	23.157963
2171.421387	26.461905
2170.665283	23.150370
2169.909424	46.293148
2169.153076	13.224444
2168.396729	29.750120
2167.640381	9.915080
2166.883789	16.522423
2166.127197	39.647312
2165.370361	13.213603
2164.613525	26.422871
2163.856445	39.627804
2163.099365	29.715977
2162.342041	46.217266
2161.584473	9.902075
2160.826904	29.701351
2160.069336	13.198434
2159.311523	29.691603
2158.553711	36.283779
2157.795654	6.595968
2157.037354	32.974426
2156.279053	32.969013
2155.520752	29.667242
2154.762207	42.845646
2154.003662	49.429169
2153.244873	32.947369
2152.485840	39.530350
2151.726807	36.230206
2150.967773	26.344912
2150.208252	26.340586
2149.448975	26.336258
2148.689453	19.748949
2147.929688	39.491413
2147.169922	23.032873
2146.410156	39.478436
2145.650146	19.735975
2144.889893	26.310310
2144.129639	26.305988
2143.369141	39.452496
2142.608643	26.297342
2141.847900	26.293020
2141.087158	39.433048
2140.326416	39.426567
2139.565186	42.705093
2138.804199	22.991270
2138.042725	32.839272
2137.281494	36.117260
2136.519775	22.979933
2135.758301	22.976154
2134.996338	13.127072
2134.234619	26.249828
2133.472412	16.403444
2132.710449	49.202240
2131.947998	13.118440
2131.185547	22.953493
2130.423096	6.557062
2129.660400	19.667950
2128.897705	29.497072
2128.134766	45.876785
2127.371826	39.316490
2126.608643	39.310020
2125.845215	45.854141
2125.081787	29.472813
2124.318359	29.467962
2123.554688	19.642075
2122.790771	32.731403
2122.026855	16.363008
2121.262939	29.448566
2120.498779	32.715240
2119.734375	32.709858
2118.969971	52.327152
2118.205322	58.858356
2117.440674	19.616220
2116.676025	32.688320
2115.911133	32.682934
2115.145996	26.142042
2114.380859	32.672173
2113.615479	32.666790
2112.850098	45.725971
2112.084473	22.859221
2111.318848	32.650650
2110.552979	29.380743
2109.787109	29.375902
2109.020996	9.790354
2108.254883	48.943703
2107.488525	42.410885
2106.722168	22.832867
2105.955566	35.874306
2105.188965	39.129158
2104.422119	39.122707
2103.655029	19.558130
2102.887939	35.850658
2102.120850	35.844749
2101.353516	26.064611
2100.585938	32.575390
2099.818359	35.827023
2099.050781	13.025860
2098.282959	26.047424
2097.514893	35.809299
2096.746826	32.548542
2095.978760	35.797489
2095.210449	55.314266
2094.441895	32.532436
2093.673340	35.779778
2092.904541	32.521706
2092.135742	42.271240
2091.366699	42.264267
2090.597656	42.257290
2089.828369	35.750271
2089.059082	22.746416
2088.289551	29.240566
2087.520020	19.490494
2086.750244	32.478794
2085.980469	29.226089
2085.210449	16.234035
2084.440186	45.447796
2083.670166	12.982942
2082.899658	19.471197
2082.129150	32.446636
2081.358643	32.441277
2080.587891	38.923103
2079.816895	22.701395
2079.045898	38.910248
2078.274902	19.451912
2077.503662	12.965798
2076.732178	25.927315
2075.960693	25.923031
2075.188965	38.878120
2074.417236	25.914467
2073.645264	16.193865
2072.873291	45.335331
2072.101074	32.377026
2071.328857	12.948670
2070.556396	45.312859
2069.783936	35.597076
2069.011230	35.591190
2068.238525	9.705084
2067.465576	22.641453
2066.692627	12.935834
2065.919434	29.100815
2065.145996	45.260448
2064.372559	32.323547
2063.599121	32.318203
2062.825439	16.156429
2062.051514	35.538265
2061.277588	9.690651
2060.503662	38.756191
2059.729248	25.833189
2058.955078	25.828915
2058.180664	25.824642
2057.406006	38.730556
2056.631348	35.497135
2055.856445	64.529564
2055.081543	25.807556
2054.306396	32.254105
2053.531250	38.698521
2052.755859	22.570402
2051.980225	25.790476
2051.204590	61.242241
2050.428955	58.009361
2049.653076	22.555462
2048.877197	32.216755
2048.101074	35.432560
2047.324707	19.323652
2046.548340	22.540527
2045.771851	35.414963
2044.995239	32.190090
2044.218506	22.529331
2043.441528	28.961485
2042.664551	32.174099
2041.887329	45.036278
2041.110107	54.677849
2040.332642	25.726490
2039.555176	25.722227
2038.777466	32.147457
2037.999634	35.356342
2037.221802	35.350487
2036.443726	35.344627
2035.665527	32.126156
2034.887207	32.120831
2034.108765	22.480854
2033.330200	19.266109
2032.551514	41.736320
2031.772705	48.149307
2030.993774	35.303638
2030.214600	38.506676
2029.435425	38.500290
2028.656128	41.701733
2027.876587	38.487522
2027.097046	25.654095
2026.317261	28.856070
2025.537476	25.645586
2024.757446	51.282661
2023.977295	32.046349
2023.197021	51.265652
2022.416626	51.257145
2021.636230	35.233440
2020.855591	25.620070
2020.074707	35.221752
2019.293823	41.618797
2018.512817	32.009148
2017.731689	35.204220
2016.950439	28.798672
2016.168945	41.591175
2015.387451	22.391531
2014.605713	54.370407
2013.823975	57.559109
2013.041992	47.957962
2012.260010	38.360001
2011.477783	35.157494
2010.695435	31.956051
2009.912964	31.950745
2009.130371	35.139984
2008.347656	54.298225
2007.564819	28.741346
2006.781860	38.315430
2005.998779	47.886330
2005.215576	35.110809
2004.432129	9.574084
2003.648682	28.717482
2002.864990	51.044819
2002.081299	31.897711
2001.297363	38.270893
2000.513428	51.019375
1999.729248	38.258171
1998.944946	63.753025
1998.160522	44.619698
1997.375977	44.612282
1996.591309	25.488495
1995.806519	38.226387
1995.021606	50.960041
1994.236572	38.213676
1993.451416	50.943096
1992.666016	54.118042
1991.880615	44.560387
1991.094971	63.647110
1990.309326	35.000088
1989.523438	41.356861
1988.737549	15.903839
1987.951416	54.064056
1987.165161	44.515934
1986.378784	38.150169
1985.592285	31.786518
1984.805664	44.493721
1984.018921	38.131126
1983.232056	57.187176
1982.444946	25.412292
1981.657837	53.992134
1980.870605	47.632191
1980.083130	31.749508
1979.295654	41.267490
1978.507935	41.260620
1977.720093	34.907021
1976.932129	41.246883
1976.144165	50.756943
1975.355957	44.404930
1974.567627	47.568787
1973.779053	50.731590
1972.990479	60.233730
1972.201782	44.375355
1971.412964	47.537106
1970.623901	57.035023
1969.834839	53.857437
1969.045532	47.513351
1968.256226	31.670292
1967.466675	56.997028
1966.677002	25.327791
1965.887207	56.978035
1965.097290	34.814106
1964.307251	41.137089
1963.517090	50.621822
1962.726807	41.123375
1961.936401	56.930569
1961.145874	31.622822
1960.355103	50.588081
1959.564331	37.934734
1958.773315	41.089111
1957.982178	28.441565
1957.191040	41.075409
1956.399658	28.432079
1955.608154	44.220303
1954.816528	34.738731
1954.024780	44.205555
1953.232910	59.983246
1952.440918	53.660267
1951.648682	44.183437
1950.856445	37.865200
1950.063965	50.478508
1949.271484	63.087608
1948.478760	56.769375
1947.685913	40.993263
1946.893066	34.680817
1946.099976	40.979580
1945.306763	53.579739
1944.513428	53.570797
1943.719971	50.411156
1942.926270	50.402740
1942.132568	56.693619
1941.338745	47.236794
1940.544678	50.377499
1939.750610	53.517155
1938.956299	40.918049
1938.161865	62.940334
1937.367310	44.050877
1936.572632	53.481415
1935.777832	53.472485
1934.982910	56.608467
1934.187866	37.732674
1933.392700	59.733418
1932.597290	56.580101
1931.801880	56.570648
1931.006226	53.418907
1930.210571	47.126453
1929.414673	62.824772
1928.618652	53.392132
1927.822510	34.542076
1927.026245	65.932938
1926.229858	59.643642
1925.433350	65.910896
1924.636719	56.485611
1923.839844	40.788345
1923.042969	53.329685
1922.245850	50.184254
1921.448730	53.311852
1920.651367	56.438404
1919.853882	56.428967
1919.056274	59.553947
1918.258545	50.142303
1917.460693	43.867176
1916.662720	50.125530
1915.864624	40.720181
1915.066284	34.449772
1914.267944	59.494198
1913.469360	53.222744
1912.670776	53.213840
1911.871948	62.594040
1911.072998	40.679317
1910.273926	65.701744
1909.474731	62.562618
1908.675415	59.424541
1907.875977	59.414593
1907.076294	56.278088
1906.276611	75.024887
1905.476807	75.012329
1904.676758	68.749786
1903.876587	59.364872
1903.076294	68.726761
1902.275879	46.851311
1901.475342	65.580849
1900.674683	65.569862
1899.873901	53.071476
1899.072998	59.305244
1898.271851	62.416115
1897.470703	59.285374
1896.669312	49.916161
1895.867920	71.742462
1895.066284	59.255581
1894.264526	81.072998
1893.462646	62.353394
1892.660645	90.397263
1891.858521	77.915619
1891.056152	81.018661
1890.253784	77.889496
1889.451172	62.301155
1888.648560	74.748848
1887.845703	62.280266
1887.042725	74.723785
1886.239624	65.372353
1885.436401	52.911602
1884.633057	43.566952
1883.829590	77.785080
1883.025879	68.439392
1882.222168	55.986473
1881.418213	55.977085
1880.614258	74.623589
1879.810059	62.175896
1879.005737	68.382011
1878.201294	59.047279
1877.396729	83.895218
1876.592041	77.667717
1875.787231	83.867058
1874.982178	68.324654
1874.177124	74.523476
1873.371826	74.510971
1872.566406	77.602562
1871.760986	62.071632
1870.955322	65.164268
1870.149536	68.255875
1869.343506	96.162582
1868.537476	49.623966
1867.731323	89.928337
1866.924927	65.109581
1866.118530	61.998711
1865.311890	61.988300
1864.505127	80.571251
1863.698242	92.951218
1862.891235	99.131310
1862.084106	74.335991
1861.276855	86.710754
1860.469482	80.503601
1859.661865	68.106987
1858.854126	77.381294
1858.046387	83.557755
1857.238403	61.884235
1856.430298	92.810753
1855.622070	55.677090
1854.813721	49.482430
1854.005249	71.119034
1853.196533	74.198692
1852.387817	95.823860
1851.578857	77.264313
1850.769775	89.611534
1849.960693	77.238335
1849.151367	83.403374
1848.341919	89.566338
1847.532227	80.287346
1846.722534	71.011475
1845.912720	98.781960
1845.102661	77.160423
1844.292603	55.546158
1843.482300	86.390602
1842.671875	74.036629
1841.861328	80.192848
1841.050659	83.263176
1840.239868	77.082565
1839.428833	80.152374
1838.617798	64.727562
1837.806519	92.452377
1836.995117	52.380863
1836.183716	80.098427
1835.372070	89.325508
1834.560303	80.071457
1833.748291	64.662209
1832.936279	101.594940
1832.124146	89.265366
1831.311768	58.474358
1830.499390	73.849907
1829.686768	67.684349
1828.874023	86.129204
1828.061157	76.888123
1827.248169	67.650154
1826.434937	104.532623
1825.621704	70.701332
1824.808228	82.983231
1823.994751	67.604576
1823.181030	76.810432
1822.367188	92.156990
1821.553223	85.998695
1820.739136	73.700745
1819.924927	64.477280
1819.110474	107.444023
1818.296021	67.524857
1817.481323	67.513474
1816.666626	82.843475
1815.851685	76.693993
1815.036621	101.219002
1814.221436	79.734856
1813.406006	85.853828
1812.590576	79.707962
1811.774902	104.215912
1810.959229	101.133675
1810.143311	79.667641
1809.327271	91.908691
1808.511108	58.199020
1807.694824	73.502151
1806.878418	73.489746
1806.061768	79.600464
1805.245117	101.014305
1804.428223	91.815689
1803.611206	97.920212
1802.794067	82.606232
1801.976807	94.828186
1801.159424	94.812180
1800.341919	70.332649
1799.524170	70.320770
1798.706421	79.479630
1797.888428	73.353424
1797.070313	73.341034
1796.252075	119.159058
1795.433716	100.809868
1794.615234	103.847176
1793.796509	103.829636
1792.977783	76.332428
1792.158813	91.583443
1791.339844	97.672501
1790.520630	70.190254
1789.701294	112.895676
1788.881714	106.775162
1788.062134	82.355492
1787.242432	85.391266
1786.422485	85.376839
1785.602417	94.508377
1784.782349	57.914700
1783.962036	79.238304
1783.141479	100.554688
1782.320923	103.584290
1781.500244	88.336372
1780.679321	57.865768
1779.858398	112.666916
1779.037231	94.380646
1778.215942	82.188599
1777.394531	109.566269
1776.572998	94.332771
1775.751221	85.189384
1774.929443	112.552650
1774.107422	88.202019
1773.285278	106.432709
1772.463013	94.253021
1771.640625	91.197166
1770.818115	97.260521
1769.995483	91.166313
1769.172607	91.150887
1768.349731	82.021912
1767.526611	97.194702
1766.703369	97.178253
1765.880005	75.907661
1765.056519	97.145363
1764.232910	100.164192
1763.409058	100.147240
1762.585083	109.233040
1761.761108	103.147064
1760.936890	90.996712
1760.112549	115.242981
1759.288086	90.965889
1758.463379	100.045532
1757.638672	100.028595
1756.813721	78.797058
1755.988647	90.904282
1755.163574	96.948143
1754.338257	99.960831
1753.512695	99.943901
1752.687134	90.842697
1751.861328	105.965187
1751.035522	108.974297
1750.209473	90.796524
1749.383301	105.911324
1748.557007	105.893372
1747.730591	108.900436
1746.903931	105.857475
1746.077271	96.767570
1745.250366	105.821594
1744.423340	108.826614
1743.596313	108.808159
1742.768921	93.680031
1741.941528	105.749840
1741.114014	120.836464
1740.286255	129.877167
1739.458374	93.616493
1738.630493	84.542496
1737.802368	102.641327
1736.973999	111.678970
1736.145630	99.588669
1735.317139	87.502464
1734.488403	108.605324
1733.659546	90.489075
1732.830566	90.473724
1732.001465	96.488930
1731.172241	93.457787
1730.342896	108.513199
1729.513306	129.590988
1728.683594	108.476364
1727.853882	108.457947
1727.023926	111.451744
1726.193726	129.503006
1725.363525	105.391533
1724.533203	150.533768
1723.702637	120.406563
1722.871948	129.415070
1722.041138	144.438797
1721.210205	123.353851
1720.379150	108.292305
1719.547974	99.251083
1718.716553	117.276810
1717.885010	96.210777
1717.053467	129.261261
1716.221558	102.189217
1715.389648	126.212288
1714.557617	93.140862
1713.725342	132.177460
1712.893066	123.144432
1712.060547	123.123497
1711.227905	117.097565
1710.395142	111.073677
1709.562256	117.057762
1708.729126	126.040771
1707.895874	132.020264
1707.062622	116.998062
1706.229126	128.975937
1705.395508	122.956139
1704.561646	134.928909
1703.727783	134.905960
1702.893677	134.883011
1702.059570	107.888054
1701.225220	107.869705
1700.390747	125.826576
1699.556030	119.814445
1698.721313	128.778610
1697.886353	140.734070
1697.051392	134.722458
1696.216187	143.679504
1695.380859	146.647858
1694.545410	134.653687
1693.709717	143.606155
1692.874023	107.686279
1692.038086	113.649506
1691.202026	113.630157
1690.365845	107.631294
1689.529541	134.516205
1688.692993	131.504562
1687.856445	146.423325
1687.019653	149.386108
1686.182739	143.386246
1685.345703	119.468185
1684.508545	113.475449
1683.671143	113.456116
1682.833740	158.214462
1681.996094	122.371475
1681.158325	107.429817
1680.320435	140.231689
1679.482422	122.308937
1678.644287	119.305458
1677.805908	131.213638
1676.967407	107.338310
1676.128784	122.225578
1675.290039	119.224144
1674.451172	119.203819
1673.612183	119.183495
1672.772949	131.079498
1671.933594	116.164291
1671.094116	134.012863
1670.254517	136.967575
1669.414795	136.944214
1668.574829	113.108536
1667.734863	139.873535
1666.894653	124.972054
1666.054321	119.000702
1665.213867	151.700012
1664.373169	127.882111
1663.532471	145.701263
1662.691528	154.595367
1661.850464	154.569000
1661.009277	133.738800
1660.167969	118.858650
1659.326538	136.664124
1658.484863	133.670349
1657.643066	136.617477
1656.801147	112.838646
1655.959106	178.135864
1655.116943	145.452789
1654.274658	130.588379
1653.432129	115.729019
1652.589478	121.643066
1651.746704	136.454285
1650.903809	136.430984
1650.060791	121.580757
1649.217529	118.595116
1648.374146	130.432343
1647.530640	154.120987
1646.687012	118.534348
1645.843262	139.254074
1644.999390	142.192627
1644.155273	136.244644
1643.311035	139.182693
1642.466675	151.002228
1641.622192	136.174805
1640.777588	133.191727
1639.932739	115.413094
1639.087769	127.228584
1638.242798	121.290237
1637.397461	133.100677
1636.552124	124.206062
1635.706665	144.882294
1634.860962	135.988693
1634.015137	115.275047
1633.169189	127.076393
1632.323120	106.371346
1631.476929	135.895691
1630.630493	156.548691
1629.783936	115.176498
1628.937256	168.306091
1628.090454	138.754959
1627.243530	132.827774
1626.396484	159.366058
1625.549194	147.535904
1624.701782	159.311523
1623.854248	117.988335
1623.006592	129.764954
1622.158691	112.050552
1621.310791	141.513321
1620.462646	112.012199
1619.614380	150.306427
1618.765991	132.600616
1617.917358	135.524078
1617.068726	129.609543
1616.219849	153.148682
1615.370850	129.565155
1614.521729	126.598808
1613.672363	141.295395
1612.822998	132.441742
1611.973389	129.476410
1611.123657	147.107086
1610.273804	141.198608
1609.423828	152.938950
1608.573608	135.268967
1607.723389	120.545158
1606.872925	144.041489
1606.022339	120.503853
1605.171509	129.299042
1604.320679	117.524437
1603.469604	120.441902
1602.618408	149.792297
1601.767090	117.464012
1600.915649	135.060455
1600.064087	137.972900
1599.212280	152.624695
1598.360352	102.710541
1597.508301	143.770096
1596.656128	149.612610
1595.803833	175.984634
1594.951294	137.830994
1594.098633	131.943207
1593.245850	146.578415
1592.392944	143.622208
1591.539795	131.875320
1590.686646	140.642868
1589.833252	134.759628
1588.979736	99.587845
1588.126099	114.213516
1587.272217	143.474411
1586.418335	117.101860
1585.564209	120.008804
1584.709961	111.208580
1583.855591	146.301956
1583.000977	140.425766
1582.146362	134.551590
1581.291504	140.377563
1580.436523	143.277481
1579.581421	166.641113
1578.726074	143.228287
1577.870605	140.281158
1577.015137	151.945160
1576.159424	146.076019
1575.303467	157.735001
1574.447510	128.502731
1573.591309	157.680801
1572.734985	148.895172
1571.878540	128.436508
1571.021973	157.599533
1570.165161	125.474365
1569.308350	134.205322
1568.451294	148.767288
1567.594116	125.409683
1566.736694	128.304123
1565.879272	137.028580
1565.021606	125.345016
1564.163818	142.810471
1563.305908	116.559929
1562.447876	151.501846
1561.589600	131.084824
1560.731201	154.362244
1559.872681	122.303757
1559.014038	128.105713
1558.155273	139.727646
1557.296265	136.793121
1556.437134	139.679581
1555.577881	145.474533
1554.718506	142.540512
1553.859009	157.058441
1552.999268	159.939392
1552.139404	148.281921
1551.279419	136.628448
1550.419312	133.698441
1549.558960	142.393402
1548.698608	113.314011
1547.838013	130.724426
1546.977173	127.797440
1546.116333	145.199356
1545.255249	156.788315
1544.394165	119.022476
1543.532837	113.197006
1542.671265	130.589447
1541.809692	116.059509
1540.947876	113.138535
1540.085938	150.825394
1539.223877	156.599396
1538.361694	124.678032
1537.499268	159.444427
1536.636841	136.229034
1535.774170	150.695526
1534.911377	170.951996
1534.048340	139.055618
1533.185303	139.031662
1532.322021	141.903687
1531.458618	156.356705
1530.594971	156.329758
1529.731323	153.408310
1528.867432	156.275864
1528.003418	159.142410
1527.139282	156.221985
1526.275024	138.840042
1525.410522	141.708099
1524.545898	147.466675
1523.681152	179.242279
1522.816284	144.525299
1521.951172	138.720352
1521.086060	153.143967
1520.220703	158.895569
1519.355225	150.202621
1518.489502	129.960617
1517.623779	129.938187
1516.757813	167.446991
1515.891724	155.872025
1515.025513	152.959106
1514.159058	138.505096
1513.292480	150.021286
1512.425781	149.995392
1511.558960	164.389633
1510.692017	155.710663
1509.824829	152.800751
1508.957520	147.009293
1508.090088	138.337799
1507.222534	167.129318
1506.354736	146.933151
1505.486938	141.146698
1504.618896	169.922791
1503.750610	172.772980
1502.882324	138.194519
1502.013794	158.320526
1501.145142	175.561523
1500.276367	129.490219
1499.407471	140.976105
1498.538330	146.704865
1497.669067	175.440216
1496.799683	189.787750
1495.930176	169.629425
1495.060547	181.098419
1494.190674	178.193039
1493.320679	163.794312
1492.450562	163.765991
1491.580200	163.737686
1490.709717	178.069839
1489.839233	189.525436
1488.968384	163.652756
1488.097534	177.977478
1487.226440	192.297241
1486.355347	212.351257
1485.483887	157.801346
1484.612427	169.248520
1483.740845	200.768600
1482.869019	189.263351
1481.997070	200.699127
1481.124878	255.130463
1480.252686	194.897400
1479.380249	194.863678
1478.507690	223.481415
1477.635010	240.630646
1476.762207	231.996536
1475.889160	252.001984
1475.015991	229.053055
1474.142700	263.365417
1473.269165	274.768494
1472.395630	320.507751
1471.521851	334.758148
1470.647949	371.889099
1469.773804	391.846039
1468.899658	417.515411
1468.025269	497.500671
1467.150757	526.001526
1466.276001	565.925354
1465.401245	665.847290
1464.526245	737.162415
1463.651123	745.604858
1462.775879	908.280701
1461.900391	1036.631348
1461.024780	1190.634521
1460.149048	1338.874878
1459.273193	1358.622559
1458.397217	1364.094604
1457.520996	1369.564697
1456.644653	1383.591064
1455.768188	1237.885498
1454.891479	1157.821045
1454.014648	1146.215210
1453.137695	1006.327881
1452.260620	946.297241
1451.383423	869.188538
1450.505981	860.489868
1449.628418	763.481079
1448.750732	757.652039
1447.872803	637.912109
1446.994873	629.259460
1446.116699	631.997131
1445.238403	526.572876
1444.359863	512.252258
1443.481201	500.781982
1442.602417	466.556763
1441.723511	475.008911
1440.844482	503.365173
1439.965210	466.313873
1439.085815	488.976013
1438.206299	500.260681
1437.326538	537.118469
1436.446777	599.536133
1435.566772	627.841125
1434.686646	644.774597
1433.806274	687.261475
1432.925781	596.280334
1432.045166	584.821045
1431.164429	485.373932
1430.283569	397.313141
1429.402466	337.657501
1428.521240	306.392212
1427.639893	229.754242
1426.758301	226.878342
1425.876709	232.509888
1424.994873	223.964508
1424.112793	209.753082
1423.230713	218.218658
1422.348389	221.014236
1421.465942	195.478607
1420.583374	152.956665
1419.700562	164.258224
1418.817627	184.050491
1417.934570	178.356384
1417.051392	181.155945
1416.167969	166.974091
1415.284546	200.899979
1414.400757	172.574188
1413.516968	178.201355
1412.633057	183.826569
1411.748901	192.277420
1410.864624	197.898193
1409.980103	195.037140
1409.095459	149.785080
1408.210815	166.712860
1407.325806	161.033554
1406.440796	144.057587
1405.555542	155.329178
1404.670166	146.831116
1403.784668	186.330139
1402.899048	141.134628
1402.013184	174.976471
1401.127197	177.767715
1400.241089	157.988235
1399.354736	174.885086
1398.468262	143.832047
1397.581665	194.562408
1396.694946	149.420456
1395.807983	143.756912
1394.920898	166.278046
1394.033691	183.155762
1393.146362	185.941147
1392.258789	191.542358
1391.371094	163.345901
1390.483276	160.501617
1389.595337	191.442261
1388.707153	197.038574
1387.818848	197.004227
1386.930420	191.342178
1386.041748	168.801910
1385.152954	222.217117
1384.264038	196.866913
1383.375000	196.832596
1382.485718	219.289505
1381.596313	208.007629
1380.706787	236.075592
1379.817139	255.703964
1378.927246	252.849930
1378.037231	255.614777
1377.147095	308.931000
1376.256714	331.340912
1375.366333	294.785828
1374.475586	331.225342
1373.584839	252.585419
1372.693970	280.601501
1371.802856	347.885132
1370.911499	308.553925
1370.020142	297.281891
1369.128540	322.466522
1368.236816	325.213837
1367.344971	302.732422
1366.453003	333.508057
1365.560791	305.428864
1364.668457	361.407745
1363.775879	408.963715
1362.883301	400.490387
1361.990479	476.024323
1361.097534	442.345367
1360.204346	498.251404
1359.311035	551.339233
1358.417603	554.041138
1357.524048	548.348938
1356.630249	539.861511
1355.736450	492.222961
1354.842285	472.563324
1353.948120	391.404175
1353.053711	363.383240
1352.159180	363.319733
1351.264526	380.021912
1350.369751	301.729370
1349.474731	296.090027
1348.579590	296.038269
1347.684204	290.401886
1346.788818	270.808258
1345.893188	273.552246
1344.997314	306.994751
1344.101440	281.827728
1343.205322	301.307648
1342.309082	301.254944
1341.412720	315.146790
1340.516113	298.361145
1339.619385	303.884827
1338.722534	337.281036
1337.825439	401.322083
1336.928223	429.116577
1336.030884	493.119141
1335.133423	532.029785
1334.235718	595.991943
1333.337891	640.439941
1332.439941	751.689270
1331.541870	843.414734
1330.643555	1026.949097
1329.745117	1057.377563
1328.846436	1101.705811
1327.947754	1129.328979
1327.048828	1065.165649
1326.149780	928.728577
1325.250488	800.679626
1324.351074	686.573730
1323.451538	672.557678
1322.551880	583.522217
1321.651978	505.630676
1320.751953	458.321136
1319.851807	455.463623
1318.951416	383.188843
1318.050903	358.135498
1317.150269	349.745483
1316.249512	324.706757
1315.348511	310.775940
1314.447388	288.527069
1313.546021	274.607452
1312.644653	282.879303
1311.743042	266.192657
1310.841309	293.869537
1309.939331	232.836929
1309.037231	293.766510
1308.135010	285.402313
1307.232666	282.581879
1306.330078	310.231567
1305.427368	279.713318
1304.524536	290.740082
1303.621460	296.226013
1302.718262	301.710022
1301.814941	329.332062
1300.911499	301.604187
1300.007813	265.586426
1299.104004	295.966278
1298.199951	265.493256
1297.295898	287.567200
1296.391602	301.339661
1295.487061	292.994476
1294.582520	287.415833
1293.677734	292.891632
1292.772827	279.027008
1291.867676	240.307800
1290.962402	226.457245
1290.057007	198.805603
1289.151489	245.702652
1288.245728	223.577759
1287.339844	198.700882
1286.433838	204.184494
1285.527588	173.802200
1284.621216	184.804794
1283.714722	209.592499
1282.808105	154.409454
1281.901245	176.436935
1280.994263	198.456680
1280.087036	162.595657
1279.179810	157.056335
1278.272217	176.312958
1277.364624	192.808411
1276.456787	165.235306
1275.548828	176.220016
1274.640747	156.918365
1273.732544	176.158066
1272.824097	156.863190
1271.915405	126.569092
1271.006714	134.799896
1270.097778	156.780472
1269.188721	115.502136
1268.279541	140.227921
1267.370117	134.705093
1266.460571	162.167404
1265.550781	140.153946
1264.640991	115.400589
1263.730957	159.334686
1262.820679	148.319977
1261.910400	170.263351
1260.999878	142.776398
1260.089233	164.712997
1259.178345	161.939285
1258.267334	192.097534
1257.356201	170.113586
1256.444824	178.313492
1255.533447	219.424118
1254.621704	219.385498
1253.709961	227.572372
1252.797974	211.084183
1251.885864	230.233109
1250.973633	167.163651
1250.061157	172.614014
1249.148560	169.844193
1248.235840	178.031097
1247.322876	177.999741
1246.409790	177.968384
1245.496582	125.924667
1244.583130	156.009598
1243.669556	145.035995
1242.755859	150.482529
1241.841919	150.456009
1240.927856	180.515396
1240.013672	131.260788
1239.099365	164.047058
1238.184814	123.013611
1237.270142	158.522934
1236.355225	136.633606
1235.440186	153.002655
1234.525024	155.707382
1233.609741	177.529739
1232.694214	133.806519
1231.778564	172.006607
1230.862671	161.057144
1229.946777	174.675247
1229.030640	204.661438
1228.114258	160.971924
1227.197876	185.494247
1226.281128	201.825760
1225.364380	229.059097
1224.447388	256.282806
1223.530273	264.415375
1222.613037	280.721405
1221.695557	291.571747
1220.777954	362.356995
1219.860229	359.569031
1218.942261	351.334961
1218.024170	389.395599
1217.105957	362.101196
1216.187500	370.203491
1215.268921	340.200500
1214.350220	359.188263
1213.431274	291.108765
1212.512207	291.057373
1211.593018	247.491043
1210.673706	222.974518
1209.754150	231.091293
1208.834351	212.022781
1207.914551	171.218918
1206.994507	201.078735
1206.074219	179.308807
1205.153931	160.262878
1204.233398	143.939514
1203.312744	168.352325
1202.391846	135.744003
1201.470825	162.864014
1200.549683	157.407379
1199.628296	141.098907
1198.706787	165.490616
1197.785156	149.186462
1196.863281	146.448074
1195.941284	122.018486
1195.019165	140.974213
1194.096802	143.659836
1193.174438	132.794098
1192.251709	132.770599
1191.328979	146.292740
1190.406006	148.975510
1189.482788	121.867485
1188.559570	132.676666
1187.636108	127.238777
1186.712402	132.629715
1185.788696	124.487495
1184.864746	146.111633
1183.940552	140.675186
1183.016357	119.011780
1182.091919	159.555725
1181.167236	162.231339
1180.242554	162.202606
1179.317505	132.442017
1178.392456	156.740341
1177.467163	170.222290
1176.541748	170.192139
1175.616211	210.676758
1174.690430	207.938934
1173.764526	210.602127
1172.838501	242.959412
1171.912231	302.295929
1170.985840	364.309998
1170.059204	423.603973
1169.132446	472.086365
1168.205566	528.643005
1167.278564	517.762634
1166.351318	568.898682
1165.423828	549.927795
1164.496338	528.268372
1163.568604	460.805481
1162.640747	495.749573
1161.712646	484.886414
1160.784424	441.707062
1159.856079	471.250183
1158.927490	492.705658
1157.998779	484.542572
1157.069946	516.753723
1156.140869	557.026306
1155.211670	651.093994
1154.282349	710.158386
1153.352783	785.338806
1152.423096	801.333740
1151.493164	892.602661
1150.563232	852.122986
1149.632935	827.783325
1148.702637	709.402649
1147.772095	639.423706
1146.841431	580.214294
1145.910522	478.054688
1144.979492	432.321045
1144.048340	381.234100
1143.116943	303.322571
1142.185425	297.901123
1141.253784	268.331726
1140.321899	206.578735
1139.389893	219.953873
1138.457764	160.913269
1137.525391	155.521866
1136.592896	163.537048
1135.660278	160.827530
1134.727417	139.359100
1133.794434	133.975327
1132.861206	150.025711
1131.927856	152.677597
1130.994385	104.445061
1130.060669	115.136909
1129.126831	131.179199
1128.192871	107.066025
1127.258667	109.723175
1126.324341	120.406464
1125.389893	117.709831
1124.455200	141.761642
1123.520386	114.993706
1122.585327	117.647057
1121.650146	117.626129
1120.714844	128.296600
1119.779297	130.946152
1118.843628	128.250961
1117.907837	114.871048
1116.971802	122.863449
1116.035645	104.148300
1115.099365	133.499710
1114.162842	114.789322
1113.226196	120.106979
1112.289307	125.422745
1111.352417	122.732330
1110.415161	146.719055
1109.477905	138.691513
1108.540405	130.666809
1107.602661	157.305496
1106.664917	133.286011
1105.726807	189.232437
1104.788696	191.863510
1103.850342	167.850677
1102.911865	197.122833
1101.973145	197.087723
1101.034302	189.063995
1100.095337	170.393524
1099.156128	127.772385
1098.216797	138.395416
1097.277344	159.658569
1096.337646	148.988113
1095.397827	103.741096
1094.457764	124.999039
1093.517700	109.022285
1092.577271	114.320068
1091.636841	101.009026
1090.696167	124.909950
1089.755249	103.630203
1088.814209	95.641594
1087.873047	95.624542
1086.931763	95.607498
1085.990234	116.832771
1085.048584	98.228218
1084.106689	111.482414
1083.164673	106.154793
1082.222412	103.482460
1081.280151	106.116928
1080.337524	100.793098
1079.394897	127.294884
1078.452026	116.666161
1077.509033	137.853577
1076.565796	124.576195
1075.622437	95.403038
1074.678955	95.386009
1073.735229	95.368988
1072.791382	111.243958
1071.847290	97.983139
1070.903076	129.738281
1069.958740	119.126137
1069.014160	105.870995
1068.069458	137.607712
1067.124512	108.479019
1066.179565	100.523575
1065.234253	116.374931
1064.288940	134.865036
1063.343384	116.333359
1062.397583	121.599518
1061.451660	118.934799
1060.505615	145.338776
1059.559448	140.028717
1058.613037	163.777908
1057.666382	139.978668
1056.719727	147.875565
1055.772827	147.849136
1054.825684	134.624252
1053.878418	137.239410
1052.931030	147.769867
1051.983398	168.849655
1051.035645	160.906052
1050.087769	192.525284
1049.139648	189.853989
1048.191406	203.001984
1047.242920	224.053024
1046.294312	234.554749
1045.345581	271.402435
1044.396606	279.257416
1043.447510	297.645691
1042.498291	305.493103
1041.548828	294.906097
1040.599121	310.649048
1039.649414	307.961304
1038.699341	342.118011
1037.749268	323.638336
1036.798950	326.211151
1035.848511	362.976471
1034.897827	365.541290
1033.947021	328.665314
1032.996094	318.091064
1032.044922	273.351654
1031.093506	254.907333
1030.142090	244.351929
1029.190430	202.276657
1028.238525	199.613922
1027.286499	191.700089
1026.334351	186.414642
1025.381958	173.255798
1024.429443	173.224762
1023.476807	183.690323
1022.523926	170.539032
1021.570923	149.522812
1020.617737	154.741486
1019.664368	165.202835
1018.710815	128.468063
1017.757080	165.143616
1016.803223	149.388870
1015.849121	151.982483
1014.894897	141.475555
1013.940491	154.547440
1012.985962	136.186874
1012.031189	159.729034
1011.076294	159.700394
1010.121216	191.082596
1009.165955	159.643127
1008.210510	167.464386
1007.254944	177.898987
1006.299133	224.949539
1005.343201	209.217834
1004.387085	183.032761
1003.430786	245.742752
1002.474365	253.540115
1001.517700	297.921509
1000.560913	386.705872
999.603943	444.109467
998.646790	496.268524
997.689514	517.071228
996.731995	545.699402
995.774353	459.453857
994.816528	354.968781
993.858521	315.761108
992.900330	300.049652
991.942017	245.213928
990.983459	216.479797
990.024780	190.363693
989.065918	174.685974
988.106873	182.474960
987.147705	138.134796
986.188293	145.927521
985.228760	148.506683
984.269043	177.134033
983.309143	166.684418
982.349060	187.486282
981.388794	145.796448
980.428406	166.594574
979.467834	210.808350
978.507019	273.220947
977.546082	325.204590
976.585022	348.556641
975.623718	434.317108
974.662292	488.843903
973.700623	561.549438
972.738831	603.037231
971.776855	532.760315
970.814758	524.869446
969.852417	433.848633
968.889954	358.445160
967.927246	316.829285
966.964417	264.842407
966.001404	238.834488
965.038208	192.071426
964.074890	202.417236
963.111328	189.407684
962.147644	178.996964
961.183777	186.745819
960.219727	145.220596
959.255493	145.194458
958.291077	160.722061
957.326538	155.509476
956.361755	134.750610
955.396851	111.408325
954.431763	163.196762
953.466492	137.267776
952.501038	163.137970
951.535461	137.218338
950.569641	108.719475
949.603699	163.049835
948.637573	194.071976
947.671265	155.229599
946.704773	181.068573
945.738098	201.725769
944.771240	217.203979
943.804260	255.944260
942.837097	237.804321
941.869751	250.683273
940.902222	263.557587
939.934509	242.842606
938.966614	247.964752
937.998535	268.580048
937.030334	196.234650
936.061951	196.199265
935.093323	162.609528
934.124573	157.418915
933.155640	129.008636
932.186584	139.304184
931.217285	126.382851
930.247864	134.096375
929.278198	128.915558
928.308411	110.847374
927.338440	126.291656
926.368286	118.538116
925.397949	113.363823
924.427429	105.615410
923.456787	100.445305
922.485901	100.427170
921.514893	131.304123
920.543701	110.687416
919.572327	123.535736
918.600769	123.513428
917.629028	92.618347
916.657104	123.468826
915.685059	108.015709
914.712769	113.138878
913.740356	110.547562
912.767761	115.668411
911.794983	105.367737
910.822021	102.779221
909.848877	97.622612
908.875549	97.604973
907.902039	125.836304
906.928406	100.137321
905.954590	123.223663
904.980530	130.901474
904.006348	112.914192
903.031982	164.209137
902.057434	200.093689
901.082703	223.141083
900.107849	251.308868
899.132751	253.827332
898.157532	253.781433
897.182068	210.164780
896.206482	202.439209
895.230713	230.585220
894.254761	186.996399
893.278625	143.423340
892.302307	133.154724
891.325806	143.371445
890.349182	138.226028
889.372314	127.963898
888.395325	107.470222
887.418091	115.125824
886.440735	122.778656
885.463196	104.854446
884.485474	117.620277
883.507568	132.937988
882.529480	109.909584
881.551270	104.778534
880.572815	143.086227
879.594238	125.177780
878.615417	125.155106
877.636475	125.132439
876.657349	117.449989
875.677979	150.615097
874.698486	132.721451
873.718811	163.319885
872.739014	160.738892
871.758972	178.566391
870.778748	168.332092
869.798401	150.451416
868.817810	142.775467
867.837097	145.298691
866.856140	150.369629
865.875061	191.113174
864.893799	165.601395
863.912354	173.213120
862.930725	175.728500
861.948914	198.613586
860.966919	180.756500
859.984741	185.814529
859.002441	170.511169
858.019897	193.380585
857.037231	213.697662
856.054321	193.310425
855.071289	205.990829
854.088074	228.837173
853.104614	254.217392
852.121033	289.755249
851.137268	269.372650
850.153320	320.139557
849.169189	350.565399
848.184937	419.078186
847.200439	459.632629
846.215759	436.698669
845.230896	627.005737
844.245911	774.097229
843.260681	1111.452515
842.275330	1283.773682
841.289795	1428.129028
840.304016	1397.435547
839.318115	1146.145386
838.332031	869.593933
837.345764	783.252808
836.359314	661.462280
835.372681	567.588623
834.385864	575.085754
833.398865	511.657288
832.411743	488.771851
831.424377	445.638397
830.436829	432.899506
829.449158	412.571899
828.461243	389.720978
827.473206	366.878387
826.484924	364.281952
825.496521	331.335114
824.507935	346.447754
823.519104	326.157898
822.530151	275.540680
821.541016	290.655182
820.551697	346.195801
819.562195	333.500244
818.572510	383.960693
817.582642	406.621216
816.592590	441.899170
815.602356	497.361694
814.611938	472.028992
813.621399	608.226135
812.630615	767.083374
811.639648	890.562988
810.648560	1044.266113
809.657227	1195.391479
808.665771	1351.504517
807.674072	1268.065308
806.682251	1164.492065
805.690186	970.233337
804.697998	718.093872
803.705566	597.043030
802.713013	511.298126
801.720276	385.292419
800.727356	380.186646
799.734253	329.770721
798.740906	309.575653
797.747437	294.420746
796.753784	324.558594
795.759949	256.580963
794.765930	243.958984
793.771729	193.622864
792.777344	196.101700
791.782776	203.606949
790.788025	173.411346
789.793091	153.277725
788.798035	138.176041
787.802734	175.828339
786.807251	128.080139
785.811584	140.611374
784.815796	150.627563
783.819763	117.970078
782.823547	133.005814
781.827148	102.872528
780.830627	125.431412
779.833862	100.326820
778.836975	105.323944
777.839844	82.739426
776.842529	97.765114
775.845093	117.797989
774.847412	127.800026
773.849609	110.238716
772.851563	92.683823
771.853394	100.180435
770.854980	102.666199
769.856445	102.647453
768.857666	80.100456
767.858765	112.620697
766.859680	87.577881
765.860352	135.095474
764.860901	125.065559
763.861206	125.042709
762.861389	122.519470
761.861389	112.497330
760.861145	102.478836
759.860779	74.970818
758.860168	92.447105
757.859436	79.939644
756.858521	84.920349
755.857361	82.407631
754.856079	72.405586
753.854614	82.377502
752.852905	82.362442
751.851074	102.310387
750.848999	107.281525
749.846802	107.261902
748.844421	137.170364
747.841797	112.209778
746.839050	79.779030
745.836121	94.720268
744.832947	87.226395
743.829651	92.193886
742.826111	109.615921
741.822449	87.178528
740.818604	92.143295
739.814514	107.065857
738.810303	104.556816
737.805847	107.026672
736.801270	72.167564
735.796448	97.035172
734.791504	101.992661
733.786316	109.435493
732.781006	104.442032
731.775452	129.285507
730.769775	96.946373
729.763855	131.723511
728.757751	114.305130
727.751526	99.377556
726.745056	86.939438
725.738403	91.890572
724.731628	86.907585
723.724609	89.374283
722.717407	91.840073
721.710083	86.859825
720.702515	106.693947
719.694763	106.674393
718.686829	126.497604
717.678711	94.235840
716.670410	69.424210
715.661987	109.075188
714.653320	104.098137
713.644470	84.254471
712.635437	81.761398
711.626221	71.837753
710.616821	71.824577
709.607178	66.858894
708.597412	91.604645
707.587463	69.309715
706.577332	91.571037
705.567017	76.707611
704.556458	91.537445
703.545776	86.573586
702.534912	84.084625
701.523804	89.014442
700.512573	81.581596
699.501099	91.453484
698.489502	84.022911
697.477661	79.065872
696.465698	96.343842
695.453491	101.265961
694.441101	76.552887
693.428589	76.538826
692.415833	88.867477
691.402893	98.723511
690.389771	86.367210
689.376465	88.818527
688.362976	81.402023
687.349304	86.319626
686.335449	76.440475
685.321411	71.495697
684.307190	76.412392
683.292725	103.507439
682.278137	76.384308
681.263367	73.906715
680.248352	130.544525
679.233215	105.894020
678.217834	118.185547
677.202332	135.396042
676.186584	83.683983
675.170654	86.129440
674.154541	95.955154
673.138306	93.477577
672.121826	86.081932
671.105164	81.148041
670.088318	93.426010
669.071289	90.950691
668.054016	73.730240
667.036621	88.460014
666.019043	81.073425
665.001282	90.883781
663.983276	85.955322
662.965149	73.662430
661.946777	83.468727
660.928223	93.271400
659.909546	95.708298
658.890625	83.422638
657.871521	76.047813
656.852234	80.939224
655.832764	83.376572
654.813110	76.005814
653.793274	68.637772
652.773254	78.428719
651.752991	73.513382
650.732605	73.499840
649.711975	83.284477
648.691223	71.023674
647.670227	85.702431
646.649048	97.927589
645.627747	110.148239
644.606201	85.655067
643.584473	110.107643
642.562561	107.640968
641.540466	97.837387
640.518127	92.928383
639.495667	83.131119
638.473022	107.561615
637.450134	102.653526
636.427063	92.859871
635.403870	85.513054
634.380432	102.596741
633.356812	73.269875
632.333008	83.023872
631.309021	92.774269
630.284851	92.757156
629.260498	114.704788
628.235901	126.884010
627.211182	109.783211
626.186218	97.567070
625.161133	80.477982
624.135803	80.463127
623.110291	80.448273
622.084595	90.182930
621.058716	90.166283
620.032654	104.768494
619.006409	112.057236
617.979919	90.116348
616.953308	90.099709
615.926453	80.344360
614.899414	92.500664
613.872253	90.049797
612.844849	126.533096
611.817261	109.479568
610.789490	104.594482
609.761475	111.871101
608.733337	111.850433
607.705017	102.105438
606.676453	92.364037
605.647705	106.928070
604.618774	82.610962
603.589722	109.317833
602.560425	102.011116
601.530884	106.849030
600.501221	101.973396
599.471375	135.939392
598.441284	138.341293
597.411011	121.329575
596.380615	106.750282
595.349976	92.176376
594.319153	101.860306
593.288147	82.443092
592.256897	116.368713
591.225525	109.075485
590.193970	92.091148
589.162170	109.035126
588.130188	150.198380
587.098022	101.728455
586.065674	99.287971
585.033142	116.218056
584.000427	96.830460
582.967468	75.029709
581.934387	79.855553
580.901062	111.293190
579.867554	123.367432
578.833862	130.600143
577.799988	113.649452
576.765930	116.046028
575.731628	99.104286
574.697205	125.669960
573.662537	135.311813
572.627747	130.455078
571.592712	125.600128
570.557434	113.502159
569.522034	108.652145
568.486450	120.702232
567.450623	139.988647
566.414673	139.962692
565.378479	82.031891
564.342102	94.077957
563.305542	123.002220
562.268799	156.738464
561.231812	202.516769
560.194702	132.575684
559.157349	159.061310
558.119812	146.983948
557.082092	173.457077
556.044189	175.833572
555.006042	163.759796
553.967773	166.137207
552.929260	180.550415
551.890625	137.192856
550.851746	144.386734
549.812683	139.547943
548.773376	137.116501
547.733948	170.762527
546.694275	180.349472
545.654419	187.528641
544.614441	158.648621
543.574158	173.039093
542.533752	153.783966
541.493164	199.401550
540.452332	201.766510
539.411316	211.335175
538.370178	192.087204
537.328735	216.057968
536.287170	220.818237
535.245422	242.374985
534.203430	287.916779
533.161255	271.071259
532.118896	290.208221
531.076355	256.582733
530.033630	278.112762
528.990723	280.458130
527.947571	299.579071
526.904236	301.919586
525.860718	282.697510
524.817017	268.273193
523.773132	284.987274
522.729004	249.018188
521.684692	248.971878
520.640198	234.564484
519.595520	263.237701
518.550659	270.366608
517.505615	229.649277
516.460327	255.915634
515.414856	217.607391
514.369202	169.750000
513.323364	169.718414
512.277283	193.586380
511.231079	229.393021
510.184631	207.848740
509.138000	181.535217
508.091187	157.619659
507.044159	164.753510
505.996948	159.948273
504.949554	164.692169
503.901947	167.047913
502.854126	155.087036
501.806152	140.745087
500.757965	166.954605
499.709564	164.538879
