#Wave		#Intensity
3200.600830	4.209852
3200.007080	8.419704
3199.413086	21.046080
3198.819092	4.208580
3198.224854	0.000000
3197.630615	37.865768
3197.036377	8.413343
3196.442139	42.060356
3195.847656	25.232399
3195.252930	-29.433350
3194.658447	-12.612386
3194.063721	21.017464
3193.468750	50.434288
3192.873779	0.000000
3192.278809	21.007931
3191.683838	-8.401901
3191.088623	8.400631
3190.493164	20.998402
3189.897949	41.990452
3189.302490	16.793640
3188.706787	25.186649
3188.111328	0.000000
3187.515381	0.000000
3186.919678	16.783482
3186.323730	8.390471
3185.727783	41.946007
3185.131592	12.581898
3184.535400	8.386662
3183.939209	12.578091
3183.342773	33.536499
3182.746338	16.765713
3182.149902	-8.381587
3181.553223	20.950798
3180.956543	33.516201
3180.359619	12.566673
3179.762695	25.129543
3179.165771	16.750492
3178.568604	0.000000
3177.971436	46.049908
3177.374268	-8.371443
3176.776855	12.555264
3176.179443	8.368908
3175.581787	-4.183821
3174.984131	0.000000
3174.386475	33.460430
3173.788574	25.091520
3173.190674	12.543860
3172.592773	20.903269
3171.994629	41.800205
3171.396484	33.435097
3170.798340	20.893770
3170.199951	25.068727
3169.601563	37.597393
3169.002930	29.237988
3168.404297	16.704891
3167.805664	-4.175590
3167.206787	0.000000
3166.607910	-4.174325
3166.008789	12.521076
3165.409912	41.730595
3164.810547	45.896698
3164.211426	41.717949
3163.612061	0.000000
3163.012695	16.682121
3162.413086	41.698982
3161.813477	16.677065
3161.213623	20.843170
3160.614014	4.168002
3160.013916	0.000000
3159.414063	-12.500216
3158.813965	4.166107
3158.213867	20.827375
3157.613525	-4.164844
3157.013184	41.642120
3156.412598	0.000000
3155.812256	20.814745
3155.211426	20.811588
3154.610840	24.970118
3154.010010	8.322110
3153.409180	41.604240
3152.808105	0.000000
3152.207031	-4.159162
3151.605957	24.951185
3151.004639	16.631599
3150.403320	12.471807
3149.801758	12.469915
3149.200195	16.624031
3148.598633	-4.155377
3147.996826	24.928480
3147.395020	4.154116
3146.793213	4.153486
3146.191162	-16.611422
3145.589111	12.456676
3144.986816	58.122326
3144.384766	16.603859
3143.782227	24.902008
3143.179932	29.047932
3142.577393	20.745373
3141.974609	29.039112
3141.371826	24.886889
3140.769043	12.441555
3140.166260	-4.146555
3139.563232	41.459255
3138.960205	0.000000
3138.356934	37.301998
3137.753662	0.000000
3137.150391	24.860447
3136.546875	0.000000
3135.943359	16.568598
3135.339600	49.698242
3134.735840	24.845346
3134.132080	4.140262
3133.528076	-16.558531
3132.924072	8.278008
3132.320068	-41.383751
3131.715820	28.964224
3131.111572	33.096943
3130.507080	-4.136489
3129.902588	-8.271721
3129.298096	16.540928
3128.693604	49.615242
3128.088867	8.267950
3127.483887	4.133347
3126.878906	0.000000
3126.273926	24.792542
3125.668945	41.314621
3125.063721	-4.130834
3124.458252	4.130206
3123.853027	-4.129578
3123.247559	8.257900
3122.641846	8.256645
3122.036133	16.510778
3121.430420	24.762402
3120.824707	16.505758
3120.218750	-4.125812
3119.612549	-4.125185
3119.006592	24.747341
3118.400391	-4.123930
3117.793945	-16.493210
3117.187500	4.122675
3116.581055	0.000000
3115.974609	-8.242842
3115.367920	12.362382
3114.760986	16.480667
3114.154297	-8.239080
3113.547363	16.475653
3112.940186	-16.473146
3112.333008	24.705959
3111.725830	-8.234066
3111.118408	20.582033
3110.510986	20.578901
3109.903564	12.345461
3109.295898	4.114527
3108.688232	0.000000
3108.080566	-8.226550
3107.472656	4.112648
3106.864746	28.784159
3106.256592	-24.668379
3105.648438	32.886166
3105.040039	8.220289
3104.431885	4.109519
3103.823486	0.000000
3103.214844	12.324802
3102.606201	36.968777
3101.997559	12.321048
3101.388672	0.000000
3100.779785	12.317295
3100.170898	41.051399
3099.561768	24.627087
3098.952637	36.935001
3098.343262	0.000000
3097.733887	20.513195
3097.124512	4.102014
3096.514893	8.202778
3095.905273	28.705347
3095.295410	8.200278
3094.685791	24.597086
3094.075684	12.296668
3093.465820	24.589588
3092.855713	12.292921
3092.245361	-12.291047
3091.635254	8.192782
3091.024658	0.000000
3090.414307	12.285427
3089.803711	0.000000
3089.193115	16.375576
3088.582275	16.373079
3087.971436	4.092646
3087.360596	0.000000
3086.749512	-12.274193
3086.138428	8.181548
3085.527100	16.360600
3084.915771	20.447632
3084.304443	20.444513
3083.692871	0.000000
3083.081299	0.000000
3082.469482	-12.261096
3081.857910	4.086409
3081.245850	12.257356
3080.634033	12.255486
3080.021973	20.422693
3079.409668	36.755238
3078.797607	12.249877
3078.185059	24.496016
3077.572754	16.328186
3076.960205	77.547043
3076.347656	16.323202
3075.734863	28.561245
3075.122070	-4.079555
3074.509033	20.394661
3073.895996	44.861408
3073.282959	16.310749
3072.669922	4.077065
3072.056641	20.382212
3071.443115	20.379101
3070.829834	12.225594
3070.216064	0.000000
3069.602539	20.369768
3068.988770	0.000000
3068.375000	-8.145419
3067.760986	4.072087
3067.146973	24.428793
3066.532715	8.141687
3065.918701	16.280888
3065.304199	24.417603
3064.689941	12.206936
3064.075439	24.410143
3063.460693	12.203207
3062.846191	16.268457
3062.231445	16.265972
3061.616455	16.263487
3061.001465	-12.195751
3060.386475	8.129258
3059.771240	8.128016
3059.156006	36.570484
3058.540771	36.564896
3057.925293	20.310726
3057.309814	12.184573
3056.694092	4.060904
3056.078369	-8.120565
3055.462646	0.000000
3054.846680	20.295208
3054.230713	32.467369
3053.614502	-4.057801
3052.998291	4.057180
3052.382080	0.000000
3051.765625	24.335638
3051.149170	-12.165958
3050.532715	28.382896
3049.916016	-4.054080
3049.299316	4.053459
3048.682373	-12.158519
3048.065430	16.208878
3047.448486	12.154799
3046.831299	56.713722
3046.214111	36.453243
3045.596680	16.198963
3044.979248	20.245605
3044.361816	16.194008
3043.744141	-8.095764
3043.126465	32.378105
3042.508545	4.046644
3041.890869	12.138073
3041.272705	-4.045405
3040.654785	44.492649
3040.036621	16.176668
3039.418213	16.174192
3038.799805	8.085858
3038.181396	48.507725
3037.562988	8.083384
3036.944336	20.205364
3036.325439	-24.242725
3035.706543	24.239014
3035.087646	32.313740
3034.468750	28.270191
3033.849609	28.265863
3033.230469	-16.149448
3032.611084	44.404182
3031.991699	36.325130
3031.372070	-12.106523
3030.752441	16.139557
3030.132813	20.171358
3029.513184	4.033654
3028.893066	0.000000
3028.273193	12.097254
3027.653076	-4.031800
3027.032959	-4.031182
3026.412598	20.152824
3025.792480	4.029947
3025.171875	16.117319
3024.551270	16.114849
3023.930664	24.168570
3023.310059	12.082433
3022.689209	24.161163
3022.068115	8.052486
3021.447266	16.102505
3020.826172	20.125046
3020.204834	16.097569
3019.583496	20.118876
3018.962158	20.115791
3018.340576	36.202873
3017.718994	16.087700
3017.097412	4.021308
3016.475586	12.062076
3015.853760	40.200752
3015.231689	16.077835
3014.609619	20.094212
3013.987549	20.091129
3013.365234	20.088049
3012.742920	32.135948
3012.120361	-4.016377
3011.497803	8.031523
3010.875244	44.166599
3010.252441	16.058117
3009.629639	28.097395
3009.006836	24.079786
3008.383789	12.038046
3007.760498	4.012066
3007.137451	20.057253
3006.514160	16.043341
3005.890625	0.000000
3005.267090	4.009604
3004.643555	12.026966
3004.019775	28.058615
3003.395996	32.062065
3002.772217	52.092861
3002.148193	20.032640
3001.524170	28.041389
3000.899902	0.000000
3000.275635	32.037464
2999.651367	-8.008137
2999.026855	36.031082
2998.402344	60.042580
2997.777588	16.008896
2997.152832	16.006437
2996.528076	0.000000
2995.903076	40.003803
2995.278076	15.999063
2994.653076	0.000000
2994.027832	19.992687
2993.402344	35.981308
2992.777100	19.986546
2992.151367	27.976864
2991.525879	23.976484
2990.900146	39.954670
2990.274414	35.953678
2989.648438	55.919350
2989.022461	31.949003
2988.396240	23.958071
2987.770264	39.923981
2987.143799	23.950706
2986.517578	47.894051
2985.891113	19.952787
2985.264404	39.899441
2984.637695	43.882641
2984.010986	31.909740
2983.384033	39.881042
2982.757080	39.874912
2982.130127	35.881905
2981.502930	63.780243
2980.875732	11.956957
2980.248291	51.805511
2979.620850	51.797546
2978.993408	95.611534
2978.365723	79.664024
2977.738037	51.773651
2977.110107	35.837784
2976.482178	63.701817
2975.854248	71.653519
2975.226074	59.702080
2974.597900	63.672421
2973.969482	79.578285
2973.341309	79.566040
2972.712646	127.286072
2972.083984	95.449867
2971.455322	99.411644
2970.826660	135.179031
2970.197754	111.306778
2969.568604	174.883728
2968.939697	127.168594
2968.310547	139.069244
2967.681152	123.156654
2967.051758	127.109879
2966.422363	186.663895
2965.792725	166.780350
2965.163086	186.606430
2964.533203	226.275085
2963.903564	182.579849
2963.273438	206.362823
2962.643311	162.684097
2962.013184	226.135742
2961.383057	206.267502
2960.752686	214.167877
2960.122314	229.996735
2959.491699	265.644958
2958.861084	269.568298
2958.230225	249.708618
2957.599609	273.448273
2956.968506	202.082794
2956.337646	237.707840
2955.706299	241.632401
2955.075195	213.871140
2954.443848	261.357788
2953.812500	281.114288
2953.180908	225.648529
2952.549316	277.069519
2951.917725	280.984344
2951.285889	257.199554
2950.653809	225.509445
2950.021973	253.164566
2949.389893	308.496765
2948.757568	245.177567
2948.125244	249.093628
2947.492920	237.195465
2946.860352	217.395645
2946.227783	213.410095
2945.595215	244.988617
2944.962402	197.541000
2944.329590	197.510544
2943.696533	185.631271
2943.063477	189.551636
2942.430420	150.038574
2941.797119	126.328781
2941.163574	153.939453
2940.530273	153.915710
2939.896729	134.162231
2939.262939	157.813568
2938.629150	157.789215
2937.995361	110.435410
2937.361328	165.627548
2936.727295	122.230049
2936.093262	145.864960
2935.458984	149.784134
2934.824707	157.643188
2934.190186	126.095085
2933.555664	165.474258
2932.921143	185.144989
2932.286377	200.871002
2931.651367	161.459595
2931.016602	181.121826
2930.381592	208.651642
2929.746338	196.810776
2929.111084	208.587219
2928.475830	236.100006
2927.840332	212.457199
2927.204834	239.960876
2926.569336	259.589722
2925.933594	322.470734
2925.297607	239.849731
2924.661865	338.096558
2924.025879	275.152374
2923.389648	271.179718
2922.753418	310.433197
2922.117188	267.167023
2921.480713	290.695679
2920.844238	322.072479
2920.207764	369.147980
2919.571045	325.899445
2918.934082	298.367859
2918.297363	290.471161
2917.660156	302.200317
2917.023193	298.229553
2916.385986	313.877319
2915.748779	302.060211
2915.111328	282.402252
2914.473877	305.888489
2913.836182	309.762268
2913.198486	317.555237
2912.560791	293.987183
2911.922852	278.264832
2911.284912	321.326599
2910.646729	297.768829
2910.008545	278.135773
2909.370361	321.177551
2908.731934	336.792664
2908.093506	317.162628
2907.455078	391.498260
2906.816406	375.780182
2906.177490	442.256195
2905.538574	399.142944
2904.899658	481.244965
2904.260498	430.315094
2903.621338	418.514496
2902.982178	461.467926
2902.342773	422.295135
2901.703369	422.229797
2901.063721	469.071625
2900.424072	418.190796
2899.784424	453.295563
2899.144531	386.804443
2898.504639	457.061768
2897.864502	386.684723
2897.224365	386.624878
2896.583984	390.469727
2895.943848	390.409271
2895.303223	405.962799
2894.662842	366.871094
2894.021973	374.618866
2893.381348	358.954163
2892.740479	374.502869
2892.099609	393.947205
2891.458496	448.484283
2890.817383	421.120026
2890.176025	460.041351
2889.534668	424.887634
2888.893311	444.309052
2888.251709	510.486603
2887.610107	525.992493
2886.968262	514.224060
2886.326416	490.774231
2885.684570	498.487030
2885.042480	541.241882
2884.400391	576.197083
2883.758057	615.033997
2883.115723	583.802551
2882.473389	552.580750
2881.830811	618.638916
2881.188232	626.323425
2880.545410	567.882263
2879.902588	626.129272
2879.259766	567.706238
2878.616699	590.945007
2877.973633	664.710083
2877.330322	606.308167
2876.687012	571.240295
2876.043457	575.037109
2875.399902	543.869690
2874.756348	508.827698
2874.112549	485.447327
2873.468750	477.606110
2872.824707	485.296783
2872.180664	489.103271
2871.536621	442.453400
2870.892334	512.234985
2870.248047	496.635651
2869.603760	438.368164
2868.958984	488.724060
2868.314453	453.744781
2867.669678	527.348022
2867.024902	523.389221
2866.379883	476.791748
2865.734863	468.966248
2865.089844	523.145630
2864.444580	511.440796
2863.799316	495.865601
2863.153809	484.168610
2862.508301	441.493225
2861.862549	422.063965
2861.216797	418.126923
2860.571045	375.481598
2859.925049	332.849548
2859.279053	290.230682
2858.632813	228.279373
2857.986572	239.849548
2857.340332	263.019958
2856.693848	177.897629
2856.047363	166.269791
2855.400635	158.511688
2854.753906	201.007980
2854.107178	173.922195
2853.460205	154.573502
2852.813232	123.639595
2852.166016	139.072937
2851.518799	104.288498
2850.871338	158.339417
2850.223877	139.008133
2849.576416	146.708008
2848.928711	146.685211
2848.281006	158.241028
2847.633301	135.062805
2846.985352	185.200211
2846.337158	185.171432
2845.688965	219.856903
2845.040771	196.683487
2844.392578	204.364792
2843.743896	239.031097
2843.095459	246.703415
2842.446777	269.789917
2841.798096	265.894440
2841.149170	339.059021
2840.500244	281.221130
2839.851074	319.694855
2839.202148	300.389404
2838.552734	385.054749
2837.903320	350.345306
2837.253906	346.441467
2836.604492	357.933838
2835.954834	342.485565
2835.304932	296.261658
2834.655029	346.225983
2834.005127	326.940338
2833.354980	315.352203
2832.704834	280.696686
2832.054688	238.362839
2831.404297	249.857635
2830.753906	249.818756
2830.103271	172.924545
2829.452637	172.897629
2828.801758	119.088715
2828.150879	149.797974
2827.500000	122.892029
2826.848877	92.154671
2826.197754	130.532135
2825.546387	134.350388
2824.895020	103.625595
2824.243408	84.422531
2823.591797	115.103706
2822.940186	72.887665
2822.288330	61.369526
2821.636475	69.029968
2820.984619	61.350414
2820.332520	34.504234
2819.680176	22.999241
2819.028076	72.819588
2818.375488	53.648178
2817.723145	57.471237
2817.070557	72.785561
2816.417725	84.264893
2815.764893	45.955505
2815.112061	45.948345
2814.458984	38.284325
2813.805908	61.245373
2813.152832	45.926872
2812.499512	57.399643
2811.845947	68.868835
2811.192383	34.429054
2810.538818	99.446205
2809.885010	68.836639
2809.231201	57.354927
2808.577393	30.584526
2807.923340	49.692108
2807.269287	42.040615
2806.614990	53.497894
2805.960693	49.668869
2805.306152	0.000000
2804.651611	53.472874
2803.997070	53.464535
2803.342285	15.273199
2802.687500	53.447861
2802.032471	30.536871
2801.377441	49.614677
2800.722412	26.711428
2800.067139	45.783878
2799.411621	41.962006
2798.756348	7.628265
2798.100586	38.135376
2797.445068	45.755314
2796.789307	53.372871
2796.133301	45.741035
2795.477539	26.678108
2794.821289	30.484509
2794.165283	34.289719
2793.509033	19.046871
2792.852539	26.661457
2792.196045	49.506409
2791.539551	38.075909
2790.882813	11.420989
2790.226074	22.838413
2789.569092	34.252270
2788.912109	64.688629
2788.255127	26.632338
2787.597900	30.432205
2786.940430	0.000000
2786.283203	41.831215
2785.625488	38.022438
2784.968018	45.619801
2784.310303	53.214787
2783.652588	41.805088
2782.994629	15.199475
2782.336426	22.795652
2781.678467	30.389456
2781.020264	41.778973
2780.361816	30.379961
2779.703369	15.187607
2779.044922	11.388926
2778.386230	37.957153
2777.727539	34.156101
2777.068604	22.767176
2776.409668	11.381808
2775.750732	37.933434
2775.091553	26.549252
2774.432373	45.505890
2773.772949	34.124084
2773.113525	53.073608
2772.453857	15.161518
2771.794189	18.948935
2771.134521	34.102749
2770.474609	34.097416
2769.814697	-11.364029
2769.154541	37.874172
2768.494385	34.081425
2767.833984	37.862328
2767.173584	41.642048
2766.513184	0.000000
2765.852539	-7.568913
2765.191895	34.054779
2764.531006	37.832726
2763.870117	60.522892
2763.209229	49.167156
2762.548096	41.596470
2761.886719	26.466339
2761.225586	41.583454
2760.563965	22.678335
2759.902588	41.570442
2759.240967	41.563938
2758.579102	7.555897
2757.917236	11.332071
2757.255371	15.107063
2756.593262	56.642620
2755.931152	45.307003
2755.269043	33.974934
2754.606689	67.939232
2753.944092	67.928589
2753.281494	60.371517
2752.618896	33.953663
2751.956055	30.176306
2751.293213	45.257370
2750.630371	26.396000
2749.967285	37.702663
2749.303955	45.236111
2748.640625	33.921772
2747.977295	52.758934
2747.313721	79.126007
2746.650146	18.836573
2745.986572	60.267593
2745.322754	64.024284
2744.658691	45.186531
2743.994873	48.944408
2743.330566	63.994194
2742.666504	60.220394
2742.002197	41.395031
2741.337646	63.964115
2740.673096	45.144066
2740.008545	56.421234
2739.343750	60.173218
2738.678955	30.081894
2738.013916	60.154354
2737.348877	26.313404
2736.683594	60.135498
2736.018311	56.368191
2735.353027	60.116642
2734.687500	71.377319
2734.021973	67.610016
2733.356201	48.821796
2732.690430	63.833878
2732.024658	60.069519
2731.358643	97.597664
2730.692383	90.076019
2730.026367	97.567047
2729.359863	97.551743
2728.693604	67.525230
2728.027100	101.271950
2727.360352	82.504936
2726.693604	97.490540
2726.026855	59.984764
2725.359863	108.705330
2724.692871	93.696785
2724.025635	89.934799
2723.358398	108.654160
2722.691162	119.875427
2722.023682	123.602127
2721.355957	131.072586
2720.688477	127.307671
2720.020508	101.081398
2719.352783	119.781372
2718.684814	119.762566
2718.016602	116.001770
2717.348389	97.276527
2716.680176	115.965340
2716.011719	119.687363
2715.343262	74.792854
2714.674561	97.215439
2714.005859	100.938644
2713.337158	59.806095
2712.668213	108.381523
2711.999023	78.470840
2711.329834	67.250160
2710.660645	74.710655
2709.991455	74.698921
2709.321777	63.484108
2708.652344	70.941673
2707.982666	55.997787
2707.312988	55.988987
2706.643066	74.640251
2705.972900	85.822800
2705.302979	67.155113
2704.632813	70.874809
2703.962402	59.674671
2703.291992	70.852531
2702.621582	78.298386
2701.950928	59.646534
2701.280273	70.819122
2700.609375	59.627781
2699.938477	37.261501
2699.267334	44.706772
2698.596191	26.074850
2697.925049	18.621964
2697.253662	52.133297
2696.582031	44.678658
2695.910645	48.394264
2695.239014	48.386654
2694.567139	52.100506
2693.895264	52.092312
2693.223145	33.482647
2692.551270	37.197086
2691.878906	40.910358
2691.206543	33.466846
2690.534180	59.487251
2689.861816	-3.717368
2689.189209	33.451050
2688.516357	55.742973
2687.843506	55.734200
2687.170654	40.865314
2686.497559	37.144440
2685.824463	29.710873
2685.151123	48.272568
2684.477783	51.977661
2683.804199	59.393688
2683.130615	33.403690
2682.457031	44.531239
2681.783203	48.234581
2681.109375	55.646523
2680.435303	40.801022
2679.761230	48.211796
2679.086914	37.080158
2678.412598	33.366886
2677.738281	33.361629
2677.063721	44.475166
2676.389160	51.879520
2675.714355	77.807022
2675.039551	25.931587
2674.364502	37.039288
2673.689453	48.143490
2673.014404	33.324856
2672.339111	33.319603
2671.663574	62.927113
2670.988037	40.711128
2670.312500	48.105568
2669.636719	3.699845
2668.960938	29.594095
2668.285156	55.480183
2667.609131	18.490479
2666.932861	40.672642
2666.256592	40.666229
2665.580322	40.659817
2664.903809	3.695764
2664.227295	51.732540
2663.550781	62.808178
2662.874023	44.328194
2662.197021	36.934338
2661.520020	48.007065
2660.843018	59.076298
2660.165771	77.525414
2659.488525	59.057663
2658.811035	51.667305
2658.133545	66.418907
2657.455811	44.272289
2656.778076	59.020405
2656.100342	36.881931
2655.422363	59.001781
2654.744385	62.679501
2654.066162	29.491581
2653.387939	81.089050
2652.709473	51.593979
2652.031006	51.585835
2651.352539	25.788845
2650.673828	33.151855
2649.994873	33.146622
2649.316162	36.823765
2648.636963	40.499744
2647.958008	47.855778
2647.278809	51.528854
2646.599365	58.880821
2645.919922	36.794704
2645.240479	73.577782
2644.560791	55.174625
2643.880859	44.132729
2643.201172	55.157196
2642.520996	62.501617
2641.841064	14.703939
2641.160889	44.104851
2640.480469	25.723764
2639.800049	55.113647
2639.119629	33.062962
2638.438965	40.403904
2637.758301	62.432529
2637.077393	44.063057
2636.396484	29.370729
2635.715332	36.707611
2635.034180	29.361446
2634.353027	47.704807
2633.671631	25.683146
2632.989990	22.010645
2632.308350	18.339304
2631.626709	22.003685
2630.944824	18.333506
2630.262939	36.661213
2629.581055	25.658792
2628.898926	25.654736
2628.216553	47.636974
2627.534180	21.982819
2626.851807	47.621910
2626.169189	25.638512
2625.486572	21.972391
2624.803711	40.276344
2624.120850	29.287254
2623.437988	36.603275
2622.754883	47.576729
2622.071533	7.318339
2621.388184	32.927315
2620.704834	7.316023
2620.021240	40.231762
2619.337646	32.911686
2618.653809	14.625102
2617.969971	40.212666
2617.286133	32.896065
2616.602051	29.236317
2615.917725	36.539612
2615.233398	62.107510
2614.549072	29.222437
2613.864502	47.478939
2613.179932	51.123074
2612.495117	36.510700
2611.810303	51.106884
2611.125488	36.499138
2610.440430	32.844021
2609.755127	29.190063
2609.069824	21.889080
2608.384521	40.123623
2607.698975	36.470245
2607.013428	40.110916
2606.327637	21.875216
2605.641846	25.517040
2604.956055	21.868284
2604.270020	47.373775
2603.583740	21.861355
2602.897461	18.214911
2602.211182	36.424046
2601.524658	25.492792
2600.838135	25.488752
2600.151367	14.562694
2599.464600	50.961349
2598.777832	36.395195
2598.090820	40.028366
2597.403564	14.553462
2596.716309	7.275578
2596.029053	25.460485
2595.341553	29.093084
2594.654053	25.452412
2593.966309	36.354824
2593.278564	43.618870
2592.590820	32.708965
2591.902832	54.506294
2591.214600	39.964943
2590.526367	29.060804
2589.838135	36.320244
2589.149658	36.314484
2588.461182	32.677849
2587.772461	32.672665
2587.083740	43.556644
2586.394775	32.662300
2585.705811	32.657116
2585.016846	47.163906
2584.327637	58.038673
2583.638184	72.536827
2582.948975	36.262657
2582.259277	50.759666
2581.569824	32.626034
2580.879883	39.869934
2580.190186	36.239643
2579.500244	39.857277
2578.810059	28.982510
2578.119873	36.222385
2577.429688	57.946613
2576.739258	36.210884
2576.048584	18.102568
2575.358154	47.059200
2574.667236	39.813000
2573.976563	57.900620
2573.285645	28.945713
2572.594482	32.558754
2571.903320	54.255970
2571.212158	47.014374
2570.520752	25.311409
2569.829102	36.153412
2569.137451	46.991970
2568.445801	36.141926
2567.753906	32.522564
2567.062012	28.904352
2566.370117	21.674820
2565.677979	39.730854
2564.985596	39.724541
2564.293213	54.161217
2563.600830	39.711914
2562.908203	28.876801
2562.215332	57.744419
2561.522705	61.343693
2560.829590	43.294548
2560.136719	18.036526
2559.443604	50.494244
2558.750244	36.061581
2558.056885	54.083771
2557.363525	21.630068
2556.669922	18.022190
2555.976074	43.246380
2555.282227	28.826334
2554.588379	36.027184
2553.894287	18.010727
2553.200195	18.007862
2552.505859	21.605997
2551.811523	28.803413
2551.117188	25.198977
2550.422607	14.397124
2549.727783	35.987083
2549.032959	39.579491
2548.338135	35.975632
2547.643066	14.387962
2546.947998	-3.596418
2546.252686	32.362610
2545.557373	35.952732
2544.861816	50.325813
2544.166260	32.347157
2543.470703	61.090462
2542.774902	46.708797
2542.078857	32.331711
2541.382813	25.142881
2540.686768	35.912685
2539.990479	39.497662
2539.294189	28.720997
2538.597656	25.126871
2537.901123	28.711849
2537.204346	53.826145
2536.507568	21.527027
2535.810791	32.285397
2535.113770	25.106865
2534.416504	25.102865
2533.719238	28.684418
2533.021973	57.359695
2532.324463	25.090868
2531.626953	46.589901
2530.929199	32.249409
2530.231445	42.992355
2529.533447	10.746376
2528.835449	17.907772
2528.137451	35.809837
2527.439209	21.482477
2526.740723	50.117786
2526.042236	42.951256
2525.343750	57.259212
2524.645020	35.781300
2523.946289	28.620478
2523.247314	46.500858
2522.548340	7.152837
2521.849121	35.758484
2521.149902	57.204449
2520.450684	57.195328
2519.751221	35.741379
2519.051514	35.735676
2518.351807	35.729977
2517.652100	50.013985
2516.952148	28.574862
2516.252197	60.711891
2515.552002	53.560772
2514.851807	46.411926
2514.151367	53.543678
2513.450928	46.397118
2512.750244	39.252834
2512.049561	21.407219
2511.348877	17.836502
2510.647949	57.067696
2509.946777	39.227779
2509.245605	14.262370
2508.544434	21.390139
2507.843018	39.208996
2507.141602	32.074966
2506.439941	32.069843
2505.738281	53.441204
2505.036377	64.119202
2504.334473	46.300919
2503.632568	21.366241
2502.930420	24.923302
2502.228027	39.158932
2501.525635	49.830681
2500.823242	35.587658
2500.120605	39.140171
2499.417969	21.345774
2498.715088	35.570602
2498.012207	32.008430
2497.309082	42.671085
2496.605957	24.887489
2495.902588	74.650536
2495.199219	63.975948
2494.495605	46.197468
2493.791992	39.083916
2493.088379	21.315092
2492.384521	28.415581
2491.680664	35.513798
2490.976563	49.711369
2490.272461	53.253666
2489.568115	21.298061
2488.863770	17.745546
2488.159180	42.582500
2487.454590	35.479744
2486.749756	78.042953
2486.044922	31.921556
2485.339844	46.101540
2484.634766	39.002758
2483.929688	49.631931
2483.224365	31.901138
2482.519043	42.528046
2481.813477	38.977806
2481.107666	10.628610
2480.402100	28.338425
2479.696045	28.333891
2478.990234	53.117542
2478.284180	21.243618
2477.577881	56.640579
2476.871582	46.013107
2476.165039	17.694517
2475.458496	49.536716
2474.751953	45.991016
2474.045166	42.446449
2473.338379	17.683189
2472.631348	28.288572
2471.924072	49.497078
2471.217041	38.884335
2470.509521	31.809361
2469.802246	42.405689
2469.094482	31.799173
2468.386963	45.924782
2467.679199	28.256878
2466.971191	28.252354
2466.263184	10.592936
2465.554932	38.834541
2464.846680	35.298473
2464.138428	14.117127
2463.429932	21.172298
2462.721436	49.394112
2462.012695	17.637928
2461.303955	21.162123
2460.594971	24.685186
2459.885986	52.888351
2459.176758	21.151949
2458.467529	31.722839
2457.758057	49.338730
2457.048584	49.330822
2456.338867	28.184521
2455.629150	38.747505
2454.919434	17.609678
2454.209473	10.564113
2453.499512	42.249676
2452.789307	52.803627
2452.078857	10.559031
2451.368408	38.710243
2450.657959	31.666937
2449.947266	42.215809
2449.236572	14.069679
2448.525879	52.752834
2447.814697	28.130333
2447.103760	38.673000
2446.392578	84.363922
2445.681152	59.748192
2444.969727	35.140354
2444.258301	63.242489
2443.546631	49.180710
2442.834717	42.148129
2442.122803	80.770950
2441.410889	45.645821
2440.698730	35.106533
2439.986572	42.121078
2439.274170	31.585737
2438.561768	17.544815
2437.849121	31.575598
2437.136475	38.586201
2436.423584	31.565458
2435.710693	38.573811
2434.997803	28.049175
2434.284424	31.550255
2433.571289	14.020083
2432.857910	52.566872
2432.144287	56.062321
2431.430908	38.536655
2430.717041	31.524927
2430.003174	38.524277
2429.289307	49.023022
2428.575195	31.509735
2427.861084	45.506752
2427.146729	48.999393
2426.432373	38.493340
2425.717773	6.997664
2425.003174	38.480968
2424.288330	20.986246
2423.573486	20.982872
2422.858643	34.965832
2422.143555	34.960213
2421.428223	34.954594
2420.712891	41.938770
2419.997559	27.954683
2419.281982	52.406605
2418.566162	45.411755
2417.850586	59.375053
2417.134521	45.397152
2416.418457	38.406799
2415.702393	34.909657
2414.986084	31.413637
2414.269775	66.307014
2413.553223	34.892815
2412.836670	27.909761
2412.120117	45.346066
2411.403076	41.851173
2410.686279	27.896294
2409.969238	48.810658
2409.251953	24.401402
2408.534668	59.251011
2407.817383	62.726269
2407.099854	20.905392
2406.382080	13.934685
2405.664307	31.347996
2404.946533	31.342949
2404.228516	34.819893
2403.510498	69.628578
2402.792236	34.808685
2402.073975	10.440924
2401.355469	52.196213
2400.636963	34.791874
2399.918213	41.743526
2399.199463	31.302603
2398.480469	17.387533
2397.761475	27.815575
2397.042480	24.334707
2396.323242	59.089054
2395.603760	66.030075
2394.884277	20.848242
2394.164795	27.793179
2393.445068	41.683052
2392.725098	55.568447
2392.005127	31.252216
2391.285156	31.247179
2390.564941	27.770796
2389.844727	41.649479
2389.124268	41.642769
2388.403809	13.878685
2387.683105	0.000000
2386.962402	52.028294
2386.241455	48.551914
2385.520508	55.478954
2384.799316	31.201881
2384.078125	55.461067
2383.356689	41.589096
2382.635254	38.117191
2381.913818	45.040325
2381.192139	13.856326
2380.470215	58.879890
2379.748291	45.018536
2379.026367	20.774435
2378.304199	48.465862
2377.581787	51.919334
2376.859375	20.764383
2376.136963	20.761034
2375.414307	48.434597
2374.691650	13.836223
2373.968750	48.418968
2373.245850	41.495274
2372.522705	31.116434
2371.799316	38.025059
2371.076172	27.650126
2370.352783	38.012787
2369.629150	20.730900
2368.905518	38.000515
2368.181641	44.902451
2367.457764	6.906954
2366.733643	13.811678
2366.009521	37.975983
2365.285400	44.873459
2364.561035	58.671200
2363.836426	37.957588
2363.111816	24.150928
2362.387207	41.394905
2361.662354	44.837238
2360.937256	72.417686
2360.212158	37.926945
2359.487061	31.026125
2358.761719	37.914692
2358.036377	20.677401
2357.310791	13.782706
2356.584961	41.341438
2355.859375	44.779320
2355.133301	41.328079
2354.407471	17.217249
2353.681152	58.529186
2352.955078	37.865707
2352.228516	65.393829
2351.502197	30.971018
2350.775635	61.932022
2350.048828	41.281342
2349.322021	44.714222
2348.594971	89.413986
2347.867920	41.261322
2347.140869	41.254650
2346.413330	27.498652
2345.686035	58.425186
2344.958496	48.107079
2344.230713	24.049648
2343.502930	44.656410
2342.775146	37.780079
2342.047119	44.641964
2341.319092	30.900974
2340.590820	20.597317
2339.862305	34.323307
2339.133789	20.590652
2338.405273	41.174641
2337.676514	44.598644
2336.947754	24.010767
2336.218750	37.725101
2335.489746	13.715998
2334.760498	37.712891
2334.031250	51.418343
2333.301758	41.128017
2332.572266	34.267799
2331.842529	10.278675
2331.112793	51.385056
2330.382813	10.275347
2329.652832	37.670170
2328.922607	44.512085
2328.192383	37.657970
2327.462158	34.228977
2326.731689	75.291550
2326.000977	58.170410
2325.270264	65.003456
2324.539307	44.468845
2323.808350	44.461643
2323.077393	47.874012
2322.346191	58.123310
2321.614746	30.766178
2320.883301	71.776115
2320.151855	68.347130
2319.420166	58.085648
2318.688232	37.578739
2317.956299	17.078476
2317.224365	44.396843
2316.492188	23.902117
2315.760010	47.796486
2315.027588	40.961773
2314.295166	54.606846
2313.562500	47.773243
2312.829590	40.941853
2312.096924	20.467607
2311.363770	37.517864
2310.630615	37.511780
2309.897461	47.734520
2309.164063	23.863390
2308.430664	54.536045
2307.697021	61.343098
2306.963379	30.666573
2306.229492	51.102665
2305.495605	34.062916
2304.761719	37.463127
2304.027344	57.888168
2303.293213	51.069508
2302.558838	37.444897
2301.824219	47.649406
2301.089600	34.029766
2300.354736	47.633942
2299.619873	51.028080
2298.885010	37.414520
2298.149658	54.412285
2297.414551	54.403450
2296.679199	47.595291
2295.943604	33.991116
2295.208008	37.384159
2294.472412	37.378086
2293.736572	57.756756
2293.000488	23.778332
2292.264404	16.981764
2291.528320	44.145416
2290.791992	40.742996
2290.055420	27.157585
2289.318848	40.729759
2288.582275	6.787191
2287.845459	37.323486
2287.108398	67.849854
2286.371582	50.879124
2285.634277	30.522514
2284.896973	30.517553
2284.159668	47.464035
2283.422119	33.897373
2282.684570	40.670238
2281.946777	44.052261
2281.208740	47.433186
2280.470703	44.037941
2279.732666	40.643799
2278.994385	20.318596
2278.256104	47.402351
2277.517578	40.623978
2276.779053	20.308687
2276.040283	40.610767
2275.301514	43.987846
2274.562500	40.597561
2273.823486	50.738697
2273.084229	37.202328
2272.344971	33.814796
2271.605469	64.237663
2270.865967	20.282278
2270.126221	43.937786
2269.386475	16.896399
2268.646484	43.923489
2267.906494	27.025440
2267.166260	50.664455
2266.426025	54.033291
2265.685547	37.141842
2264.945068	50.639725
2264.204346	37.129753
2263.463623	13.499531
2262.722656	47.240665
2261.981689	26.990273
2261.240723	53.971756
2260.499268	67.453712
2259.758057	50.582047
2259.016602	33.715874
2258.274902	70.791801
2257.533203	80.891747
2256.791260	37.069344
2256.049316	47.171482
2255.307129	53.901485
2254.564941	43.787823
2253.822754	40.412945
2253.080322	74.078331
2252.337646	60.599667
2251.594971	50.491493
2250.852051	43.752167
2250.109131	30.285025
2249.366211	26.915636
2248.623047	53.822498
2247.879639	47.087013
2247.136230	23.539669
2246.392578	60.520710
2245.648926	43.702278
2244.905273	50.417484
2244.161377	16.803089
2243.417236	57.121185
2242.673096	53.752350
2241.928955	26.871794
2241.184570	40.301117
2240.439941	10.073636
2239.695313	63.789295
2238.950439	30.211054
2238.205566	13.424945
2237.460693	40.268265
2236.715576	60.392544
2235.970215	70.446480
2235.224854	13.416187
2234.479492	20.120998
2233.733887	50.294289
2232.988037	46.933678
2232.242188	60.333450
2231.496338	16.756557
2230.750244	16.753822
2230.003906	36.852394
2229.257568	50.245064
2228.511230	50.236862
2227.764648	20.091465
2227.017822	53.568493
2226.270996	43.517296
2225.523926	36.816315
2224.776855	87.006172
2224.029785	50.187672
2223.282471	50.179478
2222.534912	43.481777
2221.787354	66.884117
2221.039795	26.749279
2220.291992	43.460480
2219.543945	40.110813
2218.795898	46.788303
2218.047852	36.756233
2217.299561	30.068369
2216.551025	40.084606
2215.802490	60.117088
2215.053955	56.767971
2214.305176	16.693735
2213.556152	56.749420
2212.807129	53.402493
2212.058105	50.056652
2211.308838	26.692518
2210.559326	36.696213
2209.809814	33.354740
2209.060303	50.023933
2208.310547	40.012604
2207.560547	33.338387
2206.810547	49.999401
2206.060303	19.996490
2205.310059	19.993219
2204.559814	46.643219
2203.809326	49.966705
2203.058594	29.975119
2202.307861	53.280384
2201.557129	46.612709
2200.806152	13.315739
2200.054932	53.254242
2199.303711	43.261993
2198.552246	19.963806
2197.800781	39.921082
2197.049316	46.566975
2196.297607	53.210690
2195.545654	16.625620
2194.793701	16.622898
2194.041504	59.832638
2193.289307	36.558407
2192.537109	46.521263
2191.784668	46.513649
2191.031982	63.115334
2190.279297	26.570526
2189.526367	33.207718
2188.773438	6.640456
2188.020508	39.836216
2187.267090	39.829693
2186.513916	46.460361
2185.760498	63.043022
2185.006836	46.445145
2184.253174	43.120571
2183.499268	66.328476
2182.745361	43.106445
2181.991211	36.468708
2181.237061	39.777527
2180.482666	36.456760
2179.728271	56.333035
2178.973877	53.010639
2178.218994	19.875732
2177.464355	39.744949
2176.709229	79.476868
2175.954346	33.109936
2175.198975	29.794058
2174.443848	43.028805
2173.688232	56.259212
2172.932861	52.941170
2172.177002	36.391087
2171.421387	36.385120
2170.665283	76.065498
2169.909424	39.679840
2169.153076	19.836666
2168.396729	46.277966
2167.640381	69.405563
2166.883789	62.785210
2166.127197	23.127600
2165.370361	66.068016
2164.613525	36.331448
2163.856445	69.348656
2163.099365	36.319527
2162.342041	62.723434
2161.584473	56.111759
2160.826904	26.401201
2160.069336	16.498043
2159.311523	23.093470
2158.553711	56.074932
2157.795654	49.469761
2157.037354	26.379541
2156.279053	23.078310
2155.520752	65.927208
2154.762207	52.733105
2154.003662	46.133892
2153.244873	72.484207
2152.485840	56.001328
2151.726807	16.468275
2150.967773	52.689823
2150.208252	39.510880
2149.448975	59.256584
2148.689453	52.663864
2147.929688	46.073315
2147.169922	62.517796
2146.410156	46.058178
2145.650146	29.603964
2144.889893	29.599100
2144.129639	62.476719
2143.369141	49.315620
2142.608643	29.584511
2141.847900	39.439529
2141.087158	19.716524
2140.326416	32.855473
2139.565186	49.275108
2138.804199	32.844673
2138.042725	55.826763
2137.281494	49.250813
2136.519775	49.242714
2135.758301	36.105385
2134.996338	42.662987
2134.234619	32.812286
2133.472412	22.964823
2132.710449	45.922089
2131.947998	42.634926
2131.185547	29.511633
2130.423096	72.127686
2129.660400	32.779919
2128.897705	55.716690
2128.134766	36.046047
2127.371826	55.698360
2126.608643	39.310020
2125.845215	45.854141
2125.081787	39.297085
2124.318359	39.290615
2123.554688	65.473579
2122.790771	42.550823
2122.026855	65.452034
2121.262939	68.713318
2120.498779	49.072865
2119.734375	35.980843
2118.969971	58.868050
2118.205322	29.429178
2117.440674	49.040554
2116.676025	39.225983
2115.911133	71.902458
2115.145996	78.426125
2114.380859	58.809906
2113.615479	32.666790
2112.850098	62.056675
2112.084473	71.843262
2111.318848	52.241039
2110.552979	45.703377
2109.787109	42.431858
2109.020996	65.269028
2108.254883	71.784096
2107.488525	65.247520
2106.722168	13.047353
2105.955566	45.658211
2105.188965	35.868393
2104.422119	48.903385
2103.655029	58.674389
2102.887939	58.664715
2102.120850	55.396431
2101.353516	74.935753
2100.585938	13.030157
2099.818359	45.598030
2099.050781	48.846973
2098.282959	68.374489
2097.514893	32.553909
2096.746826	35.803394
2095.978760	48.814758
2095.210449	68.329391
2094.441895	35.785683
2093.673340	22.768950
2092.904541	52.034725
2092.135742	61.781044
2091.366699	39.013168
2090.597656	48.758411
2089.828369	29.250219
2089.059082	35.744370
2088.289551	71.476944
2087.520020	51.974651
2086.750244	42.222431
2085.980469	45.462807
2085.210449	55.195724
2084.440186	58.432884
2083.670166	64.914703
2082.899658	29.206795
2082.129150	51.914616
2081.358643	48.661915
2080.587891	32.435921
2079.816895	38.916676
2079.045898	42.152771
2078.274902	35.661839
2077.503662	38.897396
2076.732178	81.022858
2075.960693	55.086441
2075.188965	51.837498
2074.417236	77.743401
2073.645264	32.387730
2072.873291	61.526520
2072.101074	35.614731
2071.328857	58.269020
2070.556396	67.969284
2069.783936	71.194153
2069.011230	48.533443
2068.238525	61.465530
2067.465576	32.344933
2066.692627	74.381042
2065.919434	42.034512
2065.145996	80.822227
2064.372559	38.788258
2063.599121	61.404583
2062.825439	61.394428
2062.051514	48.461269
2061.277588	77.525208
2060.503662	80.742065
2059.729248	61.353821
2058.955078	64.572289
2058.180664	58.105446
2057.406006	87.143745
2056.631348	22.589087
2055.856445	41.944218
2055.081543	61.292942
2054.306396	41.930336
2053.531250	64.497536
2052.755859	51.589489
2051.980225	61.252380
2051.204590	48.349136
2050.428955	58.009361
2049.653076	48.333134
2048.877197	64.433510
2048.101074	25.769136
2047.324707	70.853394
2046.548340	48.301132
2045.771851	25.756338
2044.995239	41.847118
2044.218506	57.932568
2043.441528	28.961485
2042.664551	70.783020
2041.887329	70.771294
2041.110107	93.273979
2040.332642	35.373924
2039.555176	57.875011
2038.777466	57.865425
2037.999634	64.284264
2037.221802	64.273613
2036.443726	67.476105
2035.665527	83.528000
2034.887207	93.150406
2034.108765	54.596359
2033.330200	70.642403
2032.551514	19.262917
2031.772705	86.668755
2030.993774	51.350746
2030.214600	44.924454
2029.435425	83.417297
2028.656128	70.572159
2027.876587	86.596931
2027.097046	54.514950
2026.317261	48.093449
2025.537476	67.319664
2024.757446	51.282661
2023.977295	83.320503
2023.197021	76.898476
2022.416626	105.717865
2021.636230	54.451683
2020.855591	54.442650
2020.074707	51.231636
2019.293823	73.633255
2018.512817	80.022865
2017.731689	67.208054
2016.950439	63.997047
2016.168945	63.986427
2015.387451	102.361290
2014.605713	86.352997
2013.823975	70.350021
2013.041992	73.535545
2012.260010	63.933334
2011.477783	86.295670
2010.695435	83.085732
2009.912964	54.316265
2009.130371	76.669052
2008.347656	76.656319
2007.564819	47.902245
2006.781860	57.473145
2005.998779	79.810555
2005.215576	63.837833
2004.432129	60.635868
2003.648682	89.343277
2002.864990	111.660538
2002.081299	70.174965
2001.297363	66.974060
2000.513428	76.529060
1999.729248	89.269066
1998.944946	66.940674
1998.160522	63.742428
1997.375977	82.851379
1996.591309	66.907303
1995.806519	76.452774
1995.021606	63.700054
1994.236572	95.534195
1993.451416	76.414642
1992.666016	79.585350
1991.880615	79.572121
1991.094971	89.105949
1990.309326	60.454697
1989.523438	73.169830
1988.737549	66.796127
1987.951416	60.424534
1987.165161	76.313034
1986.378784	60.404434
1985.592285	79.466293
1984.805664	85.809319
1984.018921	73.084663
1983.232056	88.957825
1982.444946	98.472633
1981.657837	95.280235
1980.870605	57.158627
1980.083130	101.598427
1979.295654	101.581512
1978.507935	85.695129
1977.720093	85.680862
1976.932129	92.012276
1976.144165	85.652336
1975.355957	60.263832
1974.567627	72.938805
1973.779053	60.243763
1972.990479	57.063534
1972.201782	85.581047
1971.412964	101.412491
1970.623901	66.540863
1969.834839	79.202118
1969.045532	95.026703
1968.256226	85.509789
1967.466675	66.496529
1966.677002	72.817398
1965.887207	129.783295
1965.097290	91.782646
1964.307251	98.096130
1963.517090	101.243645
1962.726807	63.266731
1961.936401	82.233047
1961.145874	85.381615
1960.355103	120.146690
1959.564331	116.965431
1958.773315	79.017517
1957.982178	88.484863
1957.191040	94.789406
1956.399658	101.091843
1955.608154	97.916389
1954.816528	78.951660
1954.024780	78.938492
1953.232910	72.611298
1952.440918	82.068642
1951.648682	91.522835
1950.856445	69.419533
1950.063965	104.111923
1949.271484	91.477036
1948.478760	88.307915
1947.685913	119.826454
1946.893066	88.278442
1946.099976	78.806885
1945.306763	85.097229
1944.513428	81.931801
1943.719971	94.520920
1942.926270	85.054626
1942.132568	116.536880
1941.338745	113.368301
1940.544678	88.160622
1939.750610	91.293976
1938.956299	97.573814
1938.161865	119.586632
1937.367310	116.420174
1936.572632	103.816864
1935.777832	106.944969
1934.982910	106.927101
1934.187866	135.208740
1933.392700	106.891380
1932.597290	94.300171
1931.801880	147.712250
1931.006226	84.841789
1930.210571	119.387016
1929.414673	94.237152
1928.618652	125.628540
1927.822510	78.504715
1927.026245	78.491592
1926.229858	106.730728
1925.433350	128.683182
1924.636719	94.142685
1923.839844	112.952339
1923.042969	116.070496
1922.245850	125.460632
1921.448730	106.623703
1920.651367	144.231476
1919.853882	103.453102
1919.056274	125.376732
1918.258545	109.686295
1917.460693	100.267838
1916.662720	90.852524
1915.864624	109.631256
1915.066284	90.822128
1914.267944	112.725853
1913.469360	140.883743
1912.670776	125.209038
1911.871948	122.058380
1911.072998	147.071381
1910.273926	112.631569
1909.474731	106.356453
1908.675415	112.593864
1907.875977	121.956268
1907.076294	121.935852
1906.276611	112.537331
1905.476807	103.141945
1904.676758	106.249672
1903.876587	124.978676
1903.076294	109.338036
1902.275879	134.307083
1901.475342	137.407486
1900.674683	137.384476
1899.873901	124.874062
1899.072998	137.338455
1898.271851	131.073837
1897.470703	124.811317
1896.669312	137.269440
1895.867920	137.246445
1895.066284	130.986023
1894.264526	124.727684
1893.462646	146.530472
1892.660645	118.451591
1891.858521	149.597992
1891.056152	124.644089
1890.253784	127.738777
1889.451172	146.407715
1888.648560	140.154099
1887.845703	102.762436
1887.042725	130.766632
1886.239624	158.761429
1885.436401	118.272995
1884.633057	161.820114
1883.829590	118.233330
1883.025879	149.322311
1882.222168	136.855820
1881.418213	143.052551
1880.614258	124.372650
1879.810059	124.351791
1879.005737	146.088837
1878.201294	133.633316
1877.396729	118.074745
1876.592041	121.161644
1875.787231	149.097000
1874.982178	133.543640
1874.177124	152.152100
1873.371826	127.289574
1872.566406	142.788727
1871.760986	142.764755
1870.955322	121.019363
1870.149536	142.716827
1869.343506	117.876709
1868.537476	151.973389
1867.731323	120.938103
1866.924927	139.520538
1866.118530	145.696976
1865.311890	158.070160
1864.505127	148.746933
1863.698242	136.328445
1862.891235	114.620575
1862.084106	126.990654
1861.276855	157.937439
1860.469482	148.622040
1859.661865	157.884384
1858.854126	142.381592
1858.046387	160.926056
1857.238403	160.899002
1856.430298	145.403503
1855.622070	167.031265
1854.813721	129.891373
1854.005249	129.869537
1853.196533	160.763824
1852.387817	188.556625
1851.578857	145.256912
1850.769775	126.692169
1849.960693	145.208069
1849.151367	142.094635
1848.341919	151.336227
1847.532227	148.222794
1846.722534	151.285324
1845.912720	157.433746
1845.102661	157.407257
1844.292603	175.896164
1843.482300	145.012787
1842.671875	163.497559
1841.861328	178.891739
1841.050659	166.526352
1840.239868	135.665314
1839.428833	151.056396
1838.617798	166.442291
1837.806519	187.986511
1836.995117	175.629959
1836.183716	141.712601
1835.372070	147.849121
1834.560303	141.664886
1833.748291	150.878494
1832.936279	157.010361
1832.124146	138.515228
1831.311768	138.491898
1830.499390	178.470612
1829.686768	163.057739
1828.874023	141.497986
1828.061157	166.078354
1827.248169	156.825348
1826.434937	122.979553
1825.621704	190.586197
1824.808228	132.158478
1823.994751	150.573822
1823.181030	165.910538
1822.367188	218.104874
1821.553223	165.854630
1820.739136	187.322723
1819.924927	190.361496
1819.110474	153.491455
1818.296021	174.950760
1817.481323	174.921280
1816.666626	162.618683
1815.851685	171.794540
1815.036621	159.496597
1814.221436	168.669891
1813.406006	165.575226
1812.590576	153.284546
1811.774902	162.454224
1810.959229	177.750107
1810.143311	168.527695
1809.327271	174.626511
1808.511108	192.975693
1807.694824	192.943146
1806.878418	183.724365
1806.061768	180.631821
1805.245117	183.662369
1804.428223	186.691910
1803.611206	171.360367
1802.794067	146.855530
1801.976807	171.302521
1801.159424	223.267395
1800.341919	195.708237
1799.524170	152.871246
1798.706421	204.812881
1797.888428	155.876022
1797.070313	192.520218
1796.252075	201.653793
1795.433716	210.784271
1794.615234	186.314056
1793.796509	164.905899
1792.977783	137.398361
1792.158813	180.114105
1791.339844	189.240463
1790.520630	183.104996
1789.701294	189.176544
1788.881714	186.093857
1788.062134	192.162827
1787.242432	164.683151
1786.422485	137.212769
1785.602417	161.578842
1784.782349	170.695969
1783.962036	170.667114
1783.141479	182.826706
1782.320923	225.448166
1781.500244	225.410049
1780.679321	207.098541
1779.858398	176.613007
1779.037231	191.805832
1778.215942	182.641327
1777.394531	173.479919
1776.572998	231.267441
1775.751221	170.378769
1774.929443	185.559769
1774.107422	197.694183
1773.285278	182.456070
1772.463013	203.708145
1771.640625	212.793396
1770.818115	200.599823
1769.995483	197.527008
1769.172607	218.762115
1768.349731	203.535858
1767.526611	197.426743
1766.703369	194.356506
1765.880005	206.468842
1765.056519	203.398102
1764.232910	206.398941
1763.409058	166.912064
1762.585083	194.192062
1761.761108	194.159180
1760.936890	212.325653
1760.112549	203.191574
1759.288086	224.382538
1758.463379	178.869293
1757.638672	218.244202
1756.813721	196.992645
1755.988647	193.929138
1755.163574	221.162949
1754.338257	230.212830
1753.512695	221.088013
1752.687134	163.516846
1751.861328	187.709763
1751.035522	181.623825
1750.209473	211.858551
1749.383301	211.822647
1748.557007	193.633591
1747.730591	211.750854
1746.903931	199.616959
1746.077271	202.607101
1745.250366	205.596237
1744.423340	187.423615
1743.596313	211.571426
1742.768921	211.535553
1741.941528	226.606796
1741.114014	214.484726
1740.286255	199.346344
1739.458374	211.392090
1738.630493	229.472488
1737.802368	223.395828
1736.973999	241.468033
1736.145630	193.141663
1735.317139	208.195526
1734.488403	217.210648
1733.659546	202.092270
1732.830566	226.184311
1732.001465	211.069519
1731.172241	217.063232
1730.342896	214.012146
1729.513306	241.099518
1728.683594	244.071823
1727.853882	210.890457
1727.023926	192.781403
1726.193726	222.865646
1725.363525	231.861374
1724.533203	237.843353
1723.702637	219.741974
1722.871948	204.656387
1722.041138	210.639923
1721.210205	240.690445
1720.379150	249.673920
1719.547974	246.623901
1718.716553	240.567810
1717.885010	213.467667
1717.053467	207.419235
1716.221558	234.434082
1715.389648	231.389191
1714.557617	228.345337
1713.725342	240.322662
1712.893066	195.228973
1712.060547	219.219894
1711.227905	219.182632
1710.395142	261.173248
1709.562256	267.131805
1708.729126	216.069901
1707.895874	225.034531
1707.062622	251.995834
1706.229126	251.952972
1705.395508	233.916550
1704.561646	233.876770
1703.727783	239.832809
1702.893677	257.776428
1702.059570	224.766785
1701.225220	245.703217
1700.390747	221.694443
1699.556030	224.652084
1698.721313	224.613861
1697.886353	239.547363
1697.051392	218.549774
1696.216187	269.399078
1695.380859	227.453827
1694.545410	281.276581
1693.709717	254.302567
1692.874023	254.259277
1692.038086	266.179108
1691.202026	239.221375
1690.365845	239.180649
1689.529541	227.182938
1688.692993	242.087952
1687.856445	230.093796
1687.019653	253.956390
1686.182739	271.836426
1685.345703	232.962967
1684.508545	241.881866
1683.671143	211.983795
1682.833740	250.755005
1681.996094	238.773605
1681.158325	244.701248
1680.320435	208.855713
1679.482422	259.533600
1678.644287	244.576187
1677.805908	253.480881
1676.967407	247.474442
1676.128784	226.564484
1675.290039	226.525864
1674.451172	250.328018
1673.612183	253.264923
1672.772949	211.514633
1671.933594	274.028564
1671.094116	259.091522
1670.254517	217.361572
1669.414795	235.186798
1668.574829	250.029388
1667.734863	285.699127
1666.894653	235.066483
1666.054321	232.051376
1665.213867	279.603943
1664.373169	249.816223
1663.532471	211.118164
1662.691528	276.487885
1661.850464	249.688370
1661.009277	252.617737
1660.167969	255.546097
1659.326538	258.473450
1658.484863	234.665710
1657.643066	243.535492
1656.801147	276.157745
1655.959106	234.545563
1655.116943	261.221344
1654.274658	246.337158
1653.432129	264.099548
1652.589478	275.922089
1651.746704	278.841370
1650.903809	258.032501
1650.060791	263.919220
1649.217529	284.628265
1648.374146	260.864685
1647.530640	311.205841
1646.687012	281.519073
1645.843262	245.916763
1644.999390	242.912399
1644.155273	260.641937
1643.311035	248.752060
1642.466675	263.513702
1641.622192	272.349609
1640.777588	239.745102
1639.932739	263.378601
1639.087769	287.004028
1638.242798	239.622177
1637.397461	275.074738
1636.552124	227.711105
1635.706665	251.326431
1634.860962	263.108551
1634.015137	227.594330
1633.169189	242.331726
1632.323120	242.290283
1631.476929	230.431824
1630.630493	277.652405
1629.783936	283.511383
1628.937256	280.510162
1628.090454	250.939835
1627.243530	239.089981
1626.396484	203.634399
1625.549194	244.909607
1624.701782	227.166428
1623.854248	250.725220
1623.006592	250.682297
1622.158691	265.382904
1621.310791	247.648300
1620.462646	250.553604
1619.614380	256.405090
1618.765991	259.307861
1617.917358	238.640244
1617.068726	247.436386
1616.219849	259.174683
1615.370850	256.185638
1614.521729	250.253448
1613.672363	235.492325
1612.822998	238.395142
1611.973389	264.838104
1611.123657	267.734894
1610.273804	300.047028
1609.423828	258.819763
1608.573608	255.834793
1607.723389	246.970581
1606.872925	252.807495
1606.022339	258.642426
1605.171509	243.905014
1604.320679	246.801315
1603.469604	261.447052
1602.618408	270.213562
1601.767090	270.167236
1600.915649	255.440430
1600.064087	226.040695
1599.212280	261.223022
1598.360352	255.309052
1597.508301	222.990356
1596.656128	246.420761
1595.803833	255.177734
1594.951294	243.403671
1594.098633	275.614716
1593.245850	257.978027
1592.392944	263.795898
1591.539795	237.375565
1590.686646	278.355682
1589.833252	240.223679
1588.979736	257.756775
1588.126099	272.355316
1587.272217	257.668335
1586.418335	248.841461
1585.564209	254.652832
1584.709961	210.710999
1583.855591	237.009186
1583.000977	257.447266
1582.146362	234.002777
1581.291504	312.924988
1580.436523	295.327057
1579.581421	283.582245
1578.726074	257.226288
1577.870605	245.492020
1577.015137	277.592102
1576.159424	274.622894
1575.303467	254.128601
1574.447510	324.177338
1573.591309	221.921127
1572.734985	312.387909
1571.878540	253.954010
1571.021973	265.584412
1570.165161	256.784760
1569.308350	250.905609
1568.451294	250.862473
1567.594116	291.650421
1566.736694	282.852295
1565.879272	268.226135
1565.021606	271.095032
1564.163818	279.791931
1563.305908	268.087830
1562.447876	282.609222
1561.589600	270.908630
1560.731201	294.162018
1559.872681	279.551453
1559.014038	299.883820
1558.155273	285.277283
1557.296265	259.033783
1556.437134	302.639099
1555.577881	290.949066
1554.718506	282.172028
1553.859009	253.038589
1552.999268	282.074951
1552.139404	267.488953
1551.279419	284.884857
1550.419312	290.648804
1549.558960	273.162842
1548.698608	284.737762
1547.838013	278.878784
1546.977173	302.066681
1546.116333	278.782776
1545.255249	258.410370
1544.394165	293.201721
1543.532837	290.248749
1542.671265	336.630554
1541.809692	275.641327
1540.947876	281.395844
1540.085938	295.849823
1539.223877	266.798981
1538.361694	298.647400
1537.499268	286.999969
1536.636841	263.762604
1535.774170	307.187012
1534.911377	272.364197
1534.048340	272.317261
1533.185303	283.856293
1532.322021	263.535431
1531.458618	298.235931
1530.594971	283.709564
1529.731323	301.027618
1528.867432	321.233704
1528.003418	303.817352
1527.139282	309.550964
1526.275024	248.755066
1525.410522	315.228210
1524.545898	286.258820
1523.681152	312.228485
1522.816284	300.612610
1521.951172	280.330719
1521.086060	286.061371
1520.220703	288.901031
1519.355225	265.743103
1518.489502	288.801361
1517.623779	256.988861
1516.757813	308.910828
1515.891724	291.538422
1515.025513	303.032196
1514.159058	328.949585
1513.292480	326.007782
1512.425781	288.452667
1511.558960	302.823029
1510.692017	288.353088
1509.824829	276.771179
1508.957520	299.783661
1508.090088	299.731903
1507.222534	270.864746
1506.354736	302.509430
1505.486938	256.368469
1504.618896	244.804016
1503.750610	336.907318
1502.882324	296.542389
1502.013794	319.519592
1501.145142	236.000732
1500.276367	305.021393
1499.407471	290.583374
1498.538330	293.409729
1497.669067	258.846222
1496.799683	287.557190
1495.930176	278.882263
1495.060547	321.952759
1494.190674	301.778534
1493.320679	290.232025
1492.450562	295.928009
1491.580200	278.641327
1490.709717	295.825714
1489.839233	321.618927
1488.968384	304.336700
1488.097534	258.354401
1487.226440	338.672760
1486.355347	341.483795
1485.483887	301.257111
1484.612427	327.022552
1483.740845	318.361633
1482.869019	298.233154
1481.997070	335.454254
1481.124878	335.396210
1480.252686	312.409088
1479.380249	372.533508
1478.507690	349.547852
1477.635010	297.923645
1476.762207	352.291016
1475.889160	363.684692
1475.015991	412.295502
1474.142700	383.597443
1473.269165	374.944519
1472.395630	392.049652
1471.521851	432.038300
1470.647949	466.291718
1469.773804	500.533234
1468.899658	534.762878
1468.025269	588.995056
1467.150757	606.045288
1466.276001	660.246216
1465.401245	768.724976
1464.526245	808.592896
1463.651123	865.587219
1462.775879	925.418091
1461.900391	1033.775635
1461.024780	1190.634521
1460.149048	1210.411377
1459.273193	1235.889893
1458.397217	1318.434570
1457.520996	1269.700562
1456.644653	1278.038818
1455.768188	1212.214966
1454.891479	1157.821045
1454.014648	1103.446045
1453.137695	977.820007
1452.260620	989.051636
1451.383423	863.488953
1450.505981	866.188477
1449.628418	803.364441
1448.750732	771.893616
1447.872803	720.498901
1446.994873	680.511353
1446.116699	606.375610
1445.238403	549.343628
1444.359863	580.552612
1443.481201	569.070435
1442.602417	520.609070
1441.723511	537.584900
1440.844482	511.896790
1439.965210	537.398315
1439.085815	585.634033
1438.206299	577.005249
1437.326538	605.324036
1436.446777	656.364197
1435.566772	616.477478
1434.686646	704.423340
1433.806274	701.461121
1432.925781	655.908386
1432.045166	604.693604
1431.164429	542.142822
1430.283569	462.585999
1429.402466	431.293610
1428.521240	371.642426
1427.639893	377.250793
1426.758301	348.825439
1425.876709	311.903503
1424.994873	357.209229
1424.112793	325.967621
1423.230713	323.076965
1422.348389	308.853241
1421.465942	280.469299
1420.583374	305.913330
1419.700562	288.867920
1418.817627	339.785522
1417.934570	325.571198
1417.051392	317.022888
1416.167969	299.987335
1415.284546	316.912628
1414.400757	291.395752
1413.516968	285.687897
1412.633057	291.294403
1411.748901	322.347443
1410.864624	277.057495
1409.980103	310.928772
1409.095459	245.873611
1408.210815	370.159058
1407.325806	316.416809
1406.440796	302.238464
1405.555542	290.889191
1404.670166	288.014893
1403.784668	313.373413
1402.899048	296.382690
1402.013184	321.730927
1401.127197	299.101227
1400.241089	347.009857
1399.354736	293.355621
1398.468262	290.484314
1397.581665	310.171936
1396.694946	312.937195
1395.807983	273.420013
1394.920898	298.736816
1394.033691	256.418060
1393.146362	304.267334
1392.258789	312.664734
1391.371094	332.324432
1390.483276	309.739960
1389.595337	284.348053
1388.707153	275.854004
1387.818848	306.763733
1386.930420	340.476532
1386.041748	351.670654
1385.152954	329.106354
1384.264038	354.360443
1383.375000	354.298676
1382.485718	359.859711
1381.596313	334.498749
1380.706787	387.838470
1379.817139	382.150970
1378.927246	387.703217
1378.037231	396.062469
1377.147095	393.184937
1376.256714	426.812042
1375.366333	423.930084
1374.475586	429.470123
1373.584839	390.104126
1372.693970	423.708252
1371.802856	443.273010
1370.911499	423.560394
1370.020142	420.681946
1369.128540	420.608521
1368.236816	409.320831
1367.344971	389.627869
1366.453003	482.045288
1365.560791	459.544342
1364.668457	442.654449
1363.775879	459.383881
1362.883301	506.914429
1361.990479	568.429077
1361.097534	573.929077
1360.204346	599.021362
1359.311035	694.071716
1358.417603	685.555969
1357.524048	612.696045
1356.630249	662.938782
1355.736450	598.498352
1354.842285	564.838989
1353.948120	492.050964
1353.053711	508.736542
1352.159180	477.905182
1351.264526	447.084625
1350.369751	360.398956
1349.474731	430.168518
1348.579590	388.201141
1347.684204	407.679565
1346.788818	385.273590
1345.893188	418.702423
1344.997314	365.602844
1344.101440	412.975281
1343.205322	424.062592
1342.309082	415.620239
1341.412720	460.170105
1340.516113	482.397003
1339.619385	440.493622
1338.722534	465.503571
1337.825439	507.226532
1336.928223	537.789001
1336.030884	546.052856
1335.133423	618.380188
1334.235718	615.487000
1333.337891	673.854248
1332.439941	812.937988
1331.541870	954.756653
1330.643555	993.552368
1329.745117	1099.116211
1328.846436	1187.950562
1327.947754	1179.397705
1327.048828	1023.449036
1326.149780	953.754211
1325.250488	831.261169
1324.351074	756.065002
1323.451538	647.545227
1322.551880	589.079590
1321.651978	572.307251
1320.751953	538.874573
1319.851807	499.899109
1318.951416	491.481354
1318.050903	474.737762
1317.150269	413.587921
1316.249512	432.942352
1315.348511	416.217773
1314.447388	366.207458
1313.546021	388.333771
1312.644653	335.572510
1311.743042	357.696411
1310.841309	357.633698
1309.939331	360.342865
1309.037231	365.822449
1308.135010	376.841888
1307.232666	401.709503
1306.330078	393.329285
1305.427368	415.415833
1304.524536	395.960297
1303.621460	401.427795
1302.718262	412.429291
1301.814941	420.659454
1300.911499	323.740265
1300.007813	392.846619
1299.104004	376.181427
1298.199951	323.569885
1297.295898	345.633667
1296.391602	389.806366
1295.487061	342.748260
1294.582520	375.851471
1293.677734	386.838013
1292.772827	328.754608
1291.867676	353.556305
1290.962402	298.260773
1290.057007	251.268188
1289.151489	303.677429
1288.245728	317.425201
1287.339844	270.453979
1286.433838	286.961975
1285.527588	259.323914
1284.621216	242.728699
1283.714722	250.959442
1282.808105	308.818909
1281.901245	267.412231
1280.994263	256.339874
1280.087036	245.271408
1279.179810	270.026672
1278.272217	247.940109
1277.364624	256.159760
1276.456787	247.852966
1275.548828	198.247513
1274.640747	228.495163
1273.732544	228.454987
1272.824097	255.934692
1271.915405	233.877670
1271.006714	220.081451
1270.097778	236.545959
1269.188721	269.504974
1268.279541	211.716675
1267.370117	252.915680
1266.460571	228.133804
1265.550781	236.338013
1264.640991	200.577209
1263.730957	228.013428
1262.820679	230.719971
1261.910400	260.887390
1260.999878	282.807098
1260.089233	233.343414
1259.178345	244.281281
1258.267334	260.703796
1257.356201	304.558197
1256.444824	326.450836
1255.533447	334.621796
1254.621704	372.955353
1253.709961	331.762146
1252.797974	307.031555
1251.885864	298.754883
1250.973633	254.856049
1250.061157	246.591461
1249.148560	254.766296
1248.235840	224.593079
1247.322876	257.415009
1246.409790	229.989914
1245.496582	240.899368
1244.583130	232.645889
1243.669556	229.868378
1242.755859	188.787170
1241.841919	229.787369
1240.927856	229.746872
1240.013672	224.237183
1239.099365	210.527069
1238.184814	199.555420
1237.270142	215.919159
1236.355225	202.217728
1235.440186	259.558075
1234.525024	221.268387
1233.609741	218.498154
1232.694214	218.459610
1231.778564	215.690826
1230.862671	232.031479
1229.946777	223.802658
1229.030640	251.051361
1228.114258	278.290466
1227.197876	256.418518
1226.281128	248.191147
1225.364380	283.596985
1224.447388	299.905396
1223.530273	368.000793
1222.613037	373.386749
1221.695557	408.745453
1220.777954	422.295746
1219.860229	433.117218
1218.942261	476.617188
1218.024170	446.579559
1217.105957	449.223267
1216.187500	419.201019
1215.268921	421.848602
1214.350220	375.515015
1213.431274	342.800995
1212.512207	323.699310
1211.593018	307.324036
1210.673706	252.885727
1209.754150	280.028259
1208.834351	288.133514
1207.914551	236.445160
1206.994507	230.968826
1206.074219	274.396820
1205.153931	222.738251
1204.233398	228.130554
1203.312744	228.090240
1202.391846	228.049927
1201.470825	228.009613
1200.549683	233.397156
1199.628296	241.496216
1198.706787	225.175751
1197.785156	216.998489
1196.863281	208.824112
1195.941284	216.921753
1195.019165	243.993820
1194.096802	211.423904
1193.174438	230.357101
1192.251709	211.349121
1191.328979	203.184357
1190.406006	203.148407
1189.482788	216.653305
1188.559570	213.907288
1187.636108	208.455017
1186.712402	227.365234
1185.788696	200.262497
1184.864746	175.875107
1183.940552	202.896896
1183.016357	235.318741
1182.091919	216.346756
1181.167236	251.458572
1180.242554	243.303925
1179.317505	221.637650
1178.392456	243.217773
1177.467163	253.982468
1176.541748	291.757965
1175.616211	286.304321
1174.690430	310.558167
1173.764526	342.903473
1172.838501	375.237305
1171.912231	491.230896
1170.985840	520.828369
1170.059204	588.188965
1169.132446	636.642151
1168.205566	725.535583
1167.278564	757.767151
1166.351318	744.151855
1165.423828	673.931152
1164.496338	698.068909
1163.568604	584.764832
1162.640747	552.329651
1161.712646	533.375061
1160.784424	552.133850
1159.856079	447.014465
1158.927490	525.014221
1157.998779	524.921143
1157.069946	546.359436
1156.140869	546.262512
1155.211670	632.260681
1154.282349	661.738464
1153.352783	712.721863
1152.423096	806.711792
1151.493164	776.994507
1150.563232	784.920898
1149.632935	696.090515
1148.702637	644.911499
1147.772095	599.123901
1146.841431	488.884277
1145.910522	502.226013
1144.979492	370.560883
1144.048340	340.962891
1143.116943	319.428192
1142.185425	335.474213
1141.253784	271.015045
1140.321899	195.847366
1139.389893	276.283508
1138.457764	227.960464
1137.525391	217.194336
1136.592896	225.198563
1135.660278	214.436722
1134.727417	190.278778
1133.794434	211.681015
1132.861206	211.643402
1131.927856	176.784592
1130.994385	190.143570
1130.060669	176.721756
1129.126831	184.721725
1128.192871	195.395508
1127.258667	192.684601
1126.324341	171.244751
1125.389893	208.667435
1124.455200	184.557602
1123.520386	195.221878
1122.585327	200.534744
1121.650146	173.765884
1120.714844	160.370743
1119.779297	211.117264
1118.843628	165.657486
1117.907837	157.613770
1116.971802	154.914780
1116.035645	176.250977
1115.099365	181.559601
1114.162842	149.493073
1113.226196	149.466461
1112.289307	205.479813
1111.352417	189.434677
1110.415161	176.062866
1109.477905	186.700104
1108.540405	197.333557
1107.602661	213.295593
1106.664917	202.594742
1105.726807	178.571457
1104.788696	199.857834
1103.850342	189.165054
1102.911865	218.433411
1101.973145	237.037933
1101.034302	239.658600
1100.095337	207.667114
1099.156128	226.263596
1098.216797	165.009933
1097.277344	167.641510
1096.337646	186.235153
1095.397827	162.261719
1094.457764	140.956360
1093.517700	146.249405
1092.577271	186.102432
1091.636841	164.804199
1090.696167	154.144196
1089.755249	167.402634
1088.814209	143.462402
1087.873047	167.342957
1086.931763	138.099716
1085.990234	143.385666
1085.048584	161.943817
1084.106689	143.334534
1083.164673	180.463150
1082.222412	164.510574
1081.280151	151.216614
1080.337524	151.189651
1079.394897	156.466629
1078.452026	177.650742
1077.509033	196.176254
1076.565796	185.539017
1075.622437	145.754639
1074.678955	151.027847
1073.735229	164.246597
1072.791382	158.919937
1071.847290	140.354218
1070.903076	166.806366
1069.958740	158.834854
1069.014160	161.453262
1068.069458	169.363342
1067.124512	158.749786
1066.179565	174.593582
1065.234253	140.178894
1064.288940	169.242386
1063.343384	166.568222
1062.397583	158.608063
1061.451660	166.508713
1060.505615	147.981308
1059.559448	163.807175
1058.613037	158.494751
1057.666382	169.030853
1056.719727	176.922546
1055.772827	211.213043
1054.825684	192.697464
1053.878418	179.466919
1052.931030	205.822311
1051.983398	213.700348
1051.035645	176.732880
1050.087769	242.634598
1049.139648	197.764572
1048.191406	184.547256
1047.242920	250.412216
1046.294312	237.190186
1045.345581	284.577332
1044.396606	316.140472
1043.447510	302.913757
1042.498291	321.294495
1041.548828	352.834076
1040.599121	350.138336
1039.649414	365.868561
1038.699341	331.591309
1037.749268	392.049683
1036.798950	363.041443
1035.848511	402.430420
1034.897827	399.728607
1033.947021	354.958557
1032.996094	341.750732
1032.044922	304.892212
1031.093506	304.837616
1030.142090	236.469604
1029.190430	239.054230
1028.238525	252.143906
1027.286499	225.838455
1026.334351	217.921341
1025.381958	228.382645
1024.429443	186.347855
1023.476807	194.186920
1022.523926	191.528442
1021.570923	196.740540
1020.617737	178.346130
1019.664368	165.202835
1018.710815	180.904007
1017.757080	186.114243
1016.803223	201.806015
1015.849121	188.667908
1014.894897	196.493835
1013.940491	180.741913
1012.985962	175.471558
1012.031189	191.151154
1011.076294	198.970993
1010.121216	185.847458
1009.165955	196.282532
1008.210510	204.097214
1007.254944	196.212112
1006.299133	175.251389
1005.343201	227.524399
1004.387085	224.868820
1003.430786	230.057053
1002.474365	269.222992
1001.517700	269.174683
1000.560913	329.222565
999.603943	342.225525
998.646790	399.626770
997.689514	423.058258
996.731995	386.428284
995.774353	402.022125
994.816528	321.037933
993.858521	326.199493
992.900330	258.303589
991.942017	245.213928
990.983459	258.210846
990.024780	195.579132
989.065918	190.329498
988.106873	232.003876
987.147705	234.568512
986.188293	221.497131
985.228760	198.008911
984.269043	184.948761
983.309143	218.773300
982.349060	187.486282
981.388794	239.522736
980.428406	239.479691
979.467834	257.654663
978.507019	299.242004
977.546082	377.237305
976.585022	447.401031
975.623718	566.952881
974.662292	621.455811
973.700623	688.937988
972.738831	753.796509
971.776855	738.067993
970.814758	672.976135
969.852417	566.341370
968.889954	449.355164
967.927246	371.365479
966.964417	353.123199
966.001404	295.947083
965.038208	256.960419
964.074890	259.509277
963.111328	300.976593
962.147644	249.039246
961.183777	251.588104
960.219727	225.610565
959.255493	210.013412
958.291077	197.014145
957.326538	220.305099
956.361755	228.039505
955.396851	207.271301
954.431763	181.329727
953.466492	202.016739
952.501038	173.495941
951.535461	168.286636
950.569641	204.496155
949.603699	191.518845
948.637573	175.958588
947.671265	191.449844
946.704773	209.522202
945.738098	225.001816
944.771240	255.990402
943.804260	305.064880
942.837097	268.822296
941.869751	328.214203
940.902222	286.812653
939.934509	356.513611
938.966614	315.121887
937.998535	307.317566
937.030334	343.410614
936.061951	263.320068
935.093323	240.042633
934.124573	239.999344
933.155640	178.031906
932.186584	172.840378
931.217285	185.705414
930.247864	185.671906
929.278198	152.120361
928.308411	152.092911
927.338440	162.374985
926.368286	172.653351
925.397949	144.281235
924.427429	190.622925
923.456787	159.682281
922.485901	182.828949
921.514893	149.326263
920.543701	169.892319
919.572327	185.303604
918.600769	169.830963
917.629028	156.936646
916.657104	156.908295
915.685059	167.167160
914.712769	197.993027
913.740356	154.252411
912.767761	192.780685
911.794983	149.056793
910.822021	164.446747
909.848877	164.417038
908.875549	192.641403
907.902039	208.015106
906.928406	172.030792
905.954590	179.701172
904.980530	202.768951
904.006348	182.202438
903.031982	205.261414
902.057434	236.007950
901.082703	264.178528
900.107849	261.566376
899.132751	299.977753
898.157532	292.233154
897.182068	271.676422
896.206482	258.814667
895.230713	240.833466
894.254761	217.735535
893.278625	204.890488
892.302307	215.096100
891.325806	202.256149
890.349182	189.420853
889.372314	181.708740
888.395325	189.352295
887.418091	163.734512
886.440735	181.610092
885.463196	171.347519
884.485474	163.645615
883.507568	173.841980
882.529480	163.586365
881.551270	166.112305
880.572815	189.078232
879.594238	178.825394
878.615417	189.009750
877.636475	165.992004
876.657349	158.302155
875.677979	186.354263
874.698486	183.768173
873.718811	193.942368
872.739014	183.701584
871.758972	232.136322
870.778748	252.498138
869.798401	226.952133
868.817810	211.613632
867.837097	198.829788
866.856140	208.988297
865.875061	165.631424
864.893799	211.460236
863.912354	208.874649
862.930725	234.304672
861.948914	257.179138
860.966919	234.219696
859.984741	229.086411
859.002441	251.949341
858.019897	236.636765
857.037231	239.137848
856.054321	221.289566
855.071289	244.137283
854.088074	259.348785
853.104614	287.265656
852.121033	289.755249
851.137268	337.986420
850.153320	360.792206
849.169189	373.428345
848.184937	421.618042
847.200439	413.923309
846.215759	497.633362
845.230896	555.928162
844.245911	647.196045
843.260681	801.869873
842.275330	997.081116
841.289795	981.680176
840.304016	1062.659668
839.318115	887.501953
838.332031	758.042542
837.345764	605.816895
836.359314	603.172485
835.372681	509.309418
834.385864	504.150055
833.398865	506.591370
832.411743	465.979370
831.424377	443.106354
830.436829	455.683685
829.449158	427.758575
828.461243	420.088867
827.473206	409.891693
826.484924	397.168488
825.496521	412.271942
824.507935	331.274872
823.519104	407.065308
822.530151	331.154388
821.541016	343.731323
820.551697	318.399048
819.562195	389.083588
818.572510	371.330414
817.582642	368.737274
816.592590	446.949463
815.602356	472.114899
814.611938	494.746979
813.621399	600.654846
812.630615	756.990173
811.639648	961.202515
810.648560	1188.041992
809.657227	1419.842529
808.665771	1651.558716
807.674072	1610.921997
806.682251	1293.039917
805.690186	1113.878296
804.697998	841.555664
803.705566	705.367249
802.713013	544.041382
801.720276	463.358215
800.727356	422.989136
799.734253	380.117401
798.740906	349.845642
797.747437	347.265472
796.753784	327.074554
795.759949	301.859955
794.765930	276.654510
793.771729	236.370773
792.777344	281.581940
791.782776	268.962280
790.788025	276.452850
789.793091	258.813202
788.798035	238.667694
787.802734	233.600510
786.807251	253.648911
785.811584	246.069901
784.815796	248.535492
783.819763	195.780121
782.823547	208.292130
781.827148	205.745056
780.830627	193.164368
779.833862	190.620956
778.836975	180.555328
777.839844	190.551407
776.842529	195.530228
775.845093	218.051605
774.847412	195.458862
773.849609	202.939453
772.851563	195.387512
771.853394	195.351837
770.854980	192.812119
769.856445	210.302094
768.857666	162.704056
767.858765	205.219940
766.859680	240.213608
765.860352	177.625534
764.860901	225.117996
763.861206	182.562363
762.861389	190.030197
761.861389	192.495422
760.861145	204.957672
759.860779	184.928009
758.860168	177.398499
757.859436	167.373627
756.858521	182.328979
755.857361	174.804062
754.856079	207.229782
753.854614	207.191910
752.852905	179.699875
751.851074	204.620773
750.848999	167.159576
749.846802	214.523804
748.844421	234.436630
747.841797	204.471146
746.839050	201.940659
745.836121	174.484695
744.832947	176.944962
743.829651	156.978790
742.826111	209.266754
741.822449	199.265198
740.818604	204.209457
739.814514	224.091324
738.810303	186.708588
737.805847	176.718460
736.801270	184.151718
735.796448	176.653763
734.791504	233.836823
733.786316	186.537781
732.781006	149.202896
731.775452	181.496964
730.769775	188.921143
729.763855	233.622833
728.757751	221.155579
727.751526	201.239563
726.745056	181.330826
725.738403	196.198776
724.731628	196.162842
723.724609	183.713806
722.717407	166.304993
721.710083	210.945297
720.702515	193.537857
719.694763	183.579193
718.686829	188.506226
717.678711	198.391251
716.670410	200.834320
715.661987	218.150375
714.653320	198.282166
713.644470	203.201950
712.635437	200.687073
711.626221	227.899078
710.616821	168.416260
709.607178	230.291748
708.597412	217.870499
707.587463	212.879852
706.577332	205.416122
705.567017	188.057358
704.556458	188.022858
703.545776	183.041306
702.534912	165.696167
701.523804	158.247894
700.512573	182.940552
699.501099	200.208984
698.489502	219.942337
697.477661	210.018723
696.465698	195.158035
695.453491	205.001816
694.441101	190.147491
693.428589	204.926544
692.415833	229.574326
691.402893	185.106583
690.389771	224.554733
689.376465	219.579132
688.362976	202.271698
687.349304	197.302002
686.335449	202.197388
685.321411	187.368027
684.307190	214.447678
683.292725	199.621490
682.278137	214.368866
681.263367	206.938797
680.248352	194.585251
679.233215	214.250687
678.217834	263.455292
677.202332	243.712875
676.186584	223.977722
675.170654	184.563080
674.154541	209.133026
673.138306	196.794891
672.121826	201.677673
671.105164	209.017670
670.088318	223.730698
669.071289	223.689545
668.054016	231.021423
667.036621	211.321136
666.019043	184.257782
665.001282	186.680191
663.983276	196.469315
662.965149	223.442703
661.946777	255.316101
660.928223	206.178894
659.909546	203.686890
658.890625	188.927750
657.871521	228.143448
656.852234	215.837921
655.832764	210.893677
654.813110	235.372849
653.793274	213.267365
652.773254	252.442444
651.752991	227.891495
650.732605	208.249557
649.711975	203.312103
648.691223	235.112854
647.670227	217.929047
646.649048	193.406998
645.627747	230.087433
644.606201	237.386902
643.584473	200.640594
642.562561	264.209656
641.540466	259.269073
640.518127	229.875473
639.495667	251.838394
638.473022	271.348633
637.450134	251.745544
636.427063	290.798004
635.403870	234.550095
634.380432	229.621277
633.356812	185.617004
632.333008	256.397247
631.309021	239.259964
630.284851	241.656799
629.260498	229.409576
628.235901	305.009644
627.211182	243.962692
626.186218	251.235199
625.161133	260.943756
624.135803	229.197998
623.110291	243.782654
622.084595	260.799286
621.058716	280.246552
620.032654	289.940735
619.006409	304.503357
617.979919	311.753876
616.953308	280.039642
615.926453	270.249207
614.899414	279.936218
613.872253	289.619629
612.844849	338.232697
611.817261	316.274323
610.789490	299.188873
609.761475	289.405670
608.733337	284.489136
607.705017	303.885223
606.676453	267.369568
605.647705	289.191833
604.618774	296.427582
603.589722	298.802063
602.560425	281.744995
601.530884	262.265808
600.501221	257.361450
599.471375	325.283539
598.441284	308.234131
597.411011	288.764374
596.380615	271.727997
595.349976	278.954803
594.319153	257.076019
593.288147	269.152435
592.256897	249.707855
591.225525	271.476776
590.193970	293.237579
589.162170	278.645325
588.130188	273.748657
587.098022	264.009552
586.065674	307.550537
585.033142	249.384583
584.000427	220.289291
582.967468	261.393829
581.934387	292.803680
580.901062	258.877625
579.867554	266.086609
578.833862	278.129944
577.799988	244.225418
576.765930	282.862183
575.731628	265.889557
574.697205	306.924713
573.662537	270.623627
572.627747	285.068481
571.592712	285.015686
570.557434	246.323837
569.522034	301.811523
568.486450	289.685364
567.450623	289.631683
566.414673	313.709503
565.378479	270.222687
564.342102	279.821625
563.305542	274.946136
562.268799	320.711029
561.231812	282.076935
560.194702	349.517700
559.157349	310.892578
558.119812	344.568939
557.082092	337.277649
556.044189	325.171692
555.006042	320.294891
553.967773	313.012115
552.929260	320.176086
551.890625	286.420166
550.851746	320.057281
549.812683	327.215881
548.773376	334.371796
547.733948	331.904633
546.694275	334.247711
545.654419	322.164581
544.614441	358.161285
543.574158	367.708069
542.533752	305.165070
541.493164	367.571533
540.452332	343.483459
539.411316	372.238098
538.370178	376.971161
537.328735	388.904358
536.287170	367.230316
535.245422	400.758636
534.203430	439.073090
533.161255	431.794922
532.118896	443.706787
531.076355	465.206055
530.033630	431.554260
528.990723	467.430237
527.947571	428.997223
526.904236	450.483185
525.860718	474.356842
524.817017	476.663971
523.773132	519.682678
522.729004	457.331482
521.684692	445.276642
520.640198	430.832733
519.595520	464.255585
518.550659	425.887238
517.505615	394.709686
516.460327	389.852783
515.414856	341.954468
514.369202	349.063385
513.323364	341.827240
512.277283	334.593750
511.231079	375.153168
510.184631	375.083344
509.138000	334.406982
508.091187	334.344727
507.044159	319.956116
505.996948	315.121948
504.949554	334.158051
503.901947	319.777435
502.854126	353.121246
501.806152	360.212006
500.757965	352.989746
499.709564	405.385651
