#Wave		#Intensity
3200.600830	4.209852
3200.007080	8.419704
3199.413086	16.836864
3198.819092	12.625739
3198.224854	25.247662
3197.630615	8.414616
3197.036377	42.066715
3196.442139	37.854321
3195.847656	21.027000
3195.252930	12.614292
3194.658447	-25.224771
3194.063721	58.848900
3193.468750	33.622856
3192.873779	16.808887
3192.278809	4.201586
3191.683838	12.602853
3191.088623	16.801262
3190.493164	12.599041
3189.897949	29.393316
3189.302490	12.595230
3188.706787	58.768848
3188.111328	25.182840
3187.515381	33.572041
3186.919678	16.783482
3186.323730	8.390471
3185.727783	25.167604
3185.131592	41.939659
3184.535400	8.386662
3183.939209	16.770788
3183.342773	-4.192062
3182.746338	29.339996
3182.149902	8.381587
3181.553223	12.570478
3180.956543	58.653355
3180.359619	8.377783
3179.762695	-16.753029
3179.165771	8.375246
3178.568604	-4.186989
3177.971436	50.236263
3177.374268	12.557164
3176.776855	12.555264
3176.179443	37.660088
3175.581787	20.919104
3174.984131	8.366374
3174.386475	33.460430
3173.788574	20.909601
3173.190674	37.631580
3172.592773	45.987190
3171.994629	-8.360041
3171.396484	0.000000
3170.798340	20.893770
3170.199951	12.534364
3169.601563	25.064930
3169.002930	-16.707422
3168.404297	45.938450
3167.805664	4.175590
3167.206787	4.174957
3166.607910	50.091896
3166.008789	37.563229
3165.409912	37.557537
3164.810547	20.862135
3164.211426	37.546154
3163.612061	20.855812
3163.012695	29.193712
3162.413086	8.339796
3161.813477	-4.169266
3161.213623	16.674536
3160.614014	25.008013
3160.013916	29.171593
3159.414063	25.000431
3158.813965	4.166107
3158.213867	29.158325
3157.613525	45.813278
3157.013184	16.656847
3156.412598	54.126545
3155.812256	16.651796
3155.211426	41.623177
3154.610840	20.808432
3154.010010	33.288441
3153.409180	-24.962543
3152.808105	54.077309
3152.207031	33.273296
3151.605957	0.000000
3151.004639	20.789501
3150.403320	0.000000
3149.801758	37.409748
3149.200195	4.156008
3148.598633	37.398396
3147.996826	-8.309493
3147.395020	24.924696
3146.793213	4.153486
3146.191162	8.305711
3145.589111	16.608900
3144.986816	45.667542
3144.384766	24.905788
3143.782227	0.000000
3143.179932	12.449114
3142.577393	16.596298
3141.974609	0.000000
3141.371826	-16.591259
3140.769043	16.588739
3140.166260	16.586222
3139.563232	20.729628
3138.960205	29.017073
3138.356934	20.723333
3137.753662	8.288074
3137.150391	12.430223
3136.546875	4.142778
3135.943359	16.568598
3135.339600	-8.283040
3134.735840	20.704454
3134.132080	28.981833
3133.528076	24.837797
3132.924072	16.556017
3132.320068	28.968626
3131.715820	8.275493
3131.111572	62.056767
3130.507080	53.774357
3129.902588	28.951023
3129.298096	8.270464
3128.693604	8.269207
3128.088867	20.669876
3127.483887	28.933428
3126.878906	-16.530874
3126.273926	16.528360
3125.668945	37.183159
3125.063721	28.915838
3124.458252	16.520824
3123.853027	24.777470
3123.247559	12.386850
3122.641846	20.641613
3122.036133	4.127695
3121.430420	-8.254134
3120.824707	28.885077
3120.218750	8.251624
3119.612549	12.375553
3119.006592	12.373671
3118.400391	24.743578
3117.793945	32.986420
3117.187500	-8.245350
3116.581055	12.366144
3115.974609	41.214211
3115.367920	32.966351
3114.760986	37.081501
3114.154297	37.075859
3113.547363	20.594566
3112.940186	37.064579
3112.333008	12.352980
3111.725830	16.468132
3111.118408	0.000000
3110.510986	49.389362
3109.903564	28.806076
3109.295898	28.801691
3108.688232	16.455605
3108.080566	16.453100
3107.472656	37.013840
3106.864746	28.784159
3106.256592	41.113964
3105.648438	53.440018
3105.040039	53.431881
3104.431885	4.109519
3103.823486	-12.326679
3103.214844	41.082672
3102.606201	32.861134
3101.997559	65.712257
3101.388672	20.531952
3100.779785	0.000000
3100.170898	20.525700
3099.561768	8.209029
3098.952637	4.103889
3098.343262	8.206528
3097.733887	8.205277
3097.124512	36.918125
3096.514893	12.304167
3095.905273	20.503819
3095.295410	0.000000
3094.685791	32.796112
3094.075684	16.395557
3093.465820	49.179176
3092.855713	36.878761
3092.245361	-4.097016
3091.635254	40.963913
3091.024658	24.574600
3090.414307	20.475712
3089.803711	16.378073
3089.193115	32.751152
3088.582275	-4.093270
3087.971436	36.833813
3087.360596	36.828194
3086.749512	32.731182
3086.138428	24.544643
3085.527100	-4.090150
3084.915771	16.358105
3084.304443	12.266707
3083.692871	16.353115
3083.081299	28.613588
3082.469482	20.435160
3081.857910	-8.172817
3081.245850	8.171570
3080.634033	40.851620
3080.021973	20.422693
3079.409668	12.251746
3078.797607	8.166585
3078.185059	44.909363
3077.572754	32.656372
3076.960205	12.244270
3076.347656	20.404003
3075.734863	16.320711
3075.122070	4.079555
3074.509033	36.710392
3073.895996	24.469858
3073.282959	20.388435
3072.669922	32.616520
3072.056641	16.305769
3071.443115	32.606560
3070.829834	16.300791
3070.216064	16.298302
3069.602539	40.739536
3068.988770	-20.366657
3068.375000	52.945221
3067.760986	-8.144175
3067.146973	28.500259
3066.532715	12.212531
3065.918701	56.983109
3065.304199	24.417603
3064.689941	28.482851
3064.075439	32.546856
3063.460693	28.474150
3062.846191	16.268457
3062.231445	28.465450
3061.616455	28.461102
3061.001465	44.717754
3060.386475	20.323147
3059.771240	16.256033
3059.156006	32.507095
3058.540771	20.313831
3057.925293	52.807888
3057.309814	16.246098
3056.694092	32.487228
3056.078369	-8.120565
3055.462646	32.477299
3054.846680	20.295208
3054.230713	40.584213
3053.614502	48.693607
3052.998291	24.343082
3052.382080	28.395920
3051.765625	12.167819
3051.149170	24.331917
3050.532715	40.546993
3049.916016	44.594872
3049.299316	28.374216
3048.682373	40.528393
3048.065430	28.365538
3047.448486	28.361198
3046.831299	40.509800
3046.214111	20.251802
3045.596680	16.198963
3044.979248	4.049121
3044.361816	24.291010
3043.744141	12.143647
3043.126465	24.283577
3042.508545	36.419792
3041.890869	8.092049
3041.272705	48.544865
3040.654785	60.671791
3040.036621	8.088334
3039.418213	20.217741
3038.799805	28.300505
3038.181396	48.507725
3037.562988	12.125075
3036.944336	24.246437
3036.325439	28.283180
3035.706543	32.318687
3035.087646	44.431389
3034.468750	40.385986
3033.849609	28.265863
3033.230469	60.560432
3032.611084	20.183720
3031.991699	32.289005
3031.372070	64.568123
3030.752441	28.244226
3030.132813	28.239901
3029.513184	44.370190
3028.893066	20.165178
3028.273193	44.356598
3027.653076	32.254402
3027.032959	20.155912
3026.412598	32.244518
3025.792480	-8.059895
3025.171875	24.175978
3024.551270	48.344547
3023.930664	16.112379
3023.310059	36.247299
3022.689209	20.134302
3022.068115	20.131216
3021.447266	28.179384
3020.826172	44.275101
3020.204834	48.292706
3019.583496	40.237751
3018.962158	48.277901
3018.340576	8.045083
3017.718994	24.131550
3017.097412	64.340935
3016.475586	24.124151
3015.853760	40.200752
3015.231689	8.038918
3014.609619	20.094212
3013.987549	28.127583
3013.365234	-4.017610
3012.742920	16.067974
3012.120361	12.049132
3011.497803	8.031523
3010.875244	44.166599
3010.252441	40.145294
3009.629639	44.153049
3009.006836	12.039893
3008.383789	28.088774
3007.760498	44.132729
3007.137451	36.103054
3006.514160	4.010835
3005.890625	20.051098
3005.267090	20.048021
3004.643555	56.125843
3004.019775	40.083736
3003.395996	28.054308
3002.772217	28.050001
3002.148193	68.110977
3001.524170	68.100517
3000.899902	24.031788
3000.275635	48.056194
2999.651367	28.028477
2999.026855	48.041439
2998.402344	12.008516
2997.777588	36.020016
2997.152832	72.028969
2996.528076	12.002985
2995.903076	24.002283
2995.278076	11.999298
2994.653076	39.991516
2994.027832	39.985374
2993.402344	31.983385
2992.777100	19.986546
2992.151367	47.960339
2991.525879	39.960808
2990.900146	51.941071
2990.274414	35.953678
2989.648438	3.994239
2989.022461	43.929878
2988.396240	19.965059
2987.770264	31.939184
2987.143799	7.983569
2986.517578	47.894051
2985.891113	35.915016
2985.264404	15.959777
2984.637695	7.978662
2984.010986	35.898457
2983.384033	39.881042
2982.757080	39.874912
2982.130127	35.881905
2981.502930	55.807713
2980.875732	47.827827
2980.248291	31.880316
2979.620850	39.844265
2978.993408	19.919069
2978.365723	3.983201
2977.738037	15.930354
2977.110107	43.801735
2976.482178	59.720451
2975.854248	35.826759
2975.226074	7.960278
2974.597900	7.959053
2973.969482	47.746971
2973.341309	51.717926
2972.712646	63.643036
2972.083984	35.793701
2971.455322	51.694057
2970.826660	39.758537
2970.197754	55.653389
2969.568604	67.568718
2968.939697	75.506355
2968.310547	23.840441
2967.681152	79.455902
2967.051758	55.610573
2966.422363	67.516731
2965.792725	51.622490
2965.163086	75.436638
2964.533203	63.515812
2963.903564	67.475159
2963.273438	83.338837
2962.643311	83.325996
2962.013184	43.640232
2961.383057	47.600193
2960.752686	75.355362
2960.122314	31.723688
2959.491699	75.332153
2958.861084	51.535114
2958.230225	103.054352
2957.599609	55.482258
2956.968506	83.210564
2956.337646	31.694380
2955.706299	55.456619
2955.075195	95.053841
2954.443848	67.319427
2953.812500	67.309052
2953.180908	67.298683
2952.549316	71.246445
2951.917725	94.980621
2951.285889	67.267570
2950.653809	118.689186
2950.021973	67.246834
2949.389893	87.011902
2948.757568	63.271629
2948.125244	90.938950
2947.492920	122.550987
2946.860352	110.674149
2946.227783	86.944855
2945.595215	94.834305
2944.962402	90.868858
2944.329590	82.954430
2943.696533	78.992035
2943.063477	71.081863
2942.430420	75.019287
2941.797119	98.694359
2941.163574	86.837639
2940.530273	82.877686
2939.896729	90.756798
2939.262939	55.234745
2938.629150	106.507721
2937.995361	78.882439
2937.361328	90.700806
2936.727295	59.143570
2936.093262	98.557404
2935.458984	118.250641
2934.824707	86.703751
2934.190186	66.988014
2933.555664	63.037811
2932.921143	102.420631
2932.286377	90.588882
2931.651367	129.955292
2931.016602	133.872665
2930.381592	114.167877
2929.746338	114.150253
2929.111084	102.325806
2928.475830	98.375000
2927.840332	114.097382
2927.204834	125.881119
2926.569336	137.661209
2925.933594	114.044533
2925.297607	129.754776
2924.661865	180.842346
2924.025879	125.783943
2923.389648	153.275497
2922.753418	153.251831
2922.117188	110.009956
2921.480713	121.777916
2920.844238	164.963943
2920.207764	121.740295
2919.571045	129.574478
2918.934082	137.406250
2918.297363	149.160873
2917.660156	137.363785
2917.023193	153.038849
2916.385986	141.244797
2915.748779	121.608658
2915.111328	121.589867
2914.473877	109.806129
2913.836182	172.525818
2913.198486	113.692619
2912.560791	160.712982
2911.922852	121.495911
2911.284912	97.965424
2910.646729	70.524200
2910.008545	117.522156
2909.370361	129.254379
2908.731934	137.066788
2908.093506	109.636467
2907.455078	148.769333
2906.816406	121.345688
2906.177490	136.982010
2905.538574	129.134476
2904.899658	129.114502
2904.260498	144.742355
2903.621338	113.429161
2902.982178	156.429810
2902.342773	117.304199
2901.703369	132.924194
2901.063721	152.448273
2900.424072	128.974731
2899.784424	128.954773
2899.144531	160.191742
2898.504639	140.634399
2897.864502	179.671692
2897.224365	140.590866
2896.583984	128.855011
2895.943848	124.930969
2895.303223	132.718597
2894.662842	128.795166
2894.021973	156.091187
2893.381348	124.853615
2892.740479	144.339645
2892.099609	117.014023
2891.458496	113.096039
2890.817383	167.668152
2890.176025	159.844879
2889.534668	167.616226
2888.893311	155.897919
2888.251709	140.286392
2887.610107	144.160904
2886.968262	167.512390
2886.326416	128.536102
2885.684570	190.827072
2885.042480	175.222198
2884.400391	198.554382
2883.758057	128.456467
2883.115723	167.356720
2882.473389	198.462097
2881.830811	163.414047
2881.188232	163.388718
2880.545410	167.253006
2879.902588	202.228088
2879.259766	186.643158
2878.616699	194.389816
2877.973633	147.713348
2877.330322	155.463638
2876.687012	167.097504
2876.043457	178.727753
2875.399902	194.239166
2874.756348	170.903961
2874.112549	194.178940
2873.468750	159.202026
2872.824707	194.118713
2872.180664	163.034424
2871.536621	194.058502
2870.892334	201.789536
2870.248047	228.917999
2869.603760	182.330124
2868.958984	186.180588
2868.314453	155.126419
2867.669678	166.735031
2867.024902	186.093948
2866.379883	170.559647
2865.734863	162.781677
2865.089844	166.631577
2864.444580	143.358398
2863.799316	193.697510
2863.153809	151.060608
2862.508301	182.019135
2861.862549	143.269424
2861.216797	158.733368
2860.571045	154.837784
2859.925049	135.462021
2859.279053	185.747650
2858.632813	166.373093
2857.986572	143.136017
2857.340332	123.774094
2856.693848	170.162949
2856.047363	135.335876
2855.400635	135.314850
2854.753906	135.293839
2854.107178	146.867630
2853.460205	170.030853
2852.813232	135.230804
2852.166016	177.704300
2851.518799	119.738647
2850.871338	135.167786
2850.223877	154.453476
2849.576416	169.872421
2848.928711	138.964935
2848.281006	165.960098
2847.633301	123.486000
2846.985352	173.625198
2846.337158	123.447617
2845.688965	127.285568
2845.040771	134.978867
2844.392578	150.381638
2843.743896	115.660202
2843.095459	165.753860
2842.446777	134.894958
2841.798096	115.606270
2841.149170	146.411850
2840.500244	123.275017
2839.851074	92.441887
2839.202148	100.129799
2838.552734	107.815323
2837.903320	84.698868
2837.253906	119.329842
2836.604492	107.765030
2835.954834	134.685333
2835.304932	103.883957
2834.655029	111.561707
2834.005127	65.388069
2833.354980	69.223656
2832.704834	88.438683
2832.054688	65.357552
2831.404297	61.503418
2830.753906	73.023949
2830.103271	96.069191
2829.452637	84.527725
2828.801758	69.148285
2828.150879	69.137527
2827.500000	61.446014
2826.848877	61.436447
2826.197754	72.944427
2825.546387	61.417324
2824.895020	46.055820
2824.243408	53.723427
2823.591797	57.551853
2822.940186	34.525734
2822.288330	65.205124
2821.636475	88.204956
2820.984619	69.019218
2820.332520	76.676079
2819.680176	26.832447
2819.028076	57.489147
2818.375488	61.312202
2817.723145	68.965485
2817.070557	53.631466
2816.417725	65.113777
2815.764893	53.614758
2815.112061	26.803202
2814.458984	49.769619
2813.805908	80.384552
2813.152832	84.199265
2812.499512	42.093071
2811.845947	38.260468
2811.192383	30.603601
2810.538818	65.022522
2809.885010	26.769806
2809.231201	61.178589
2808.577393	45.876789
2807.923340	45.869637
2807.269287	42.040615
2806.614990	45.855335
2805.960693	64.951599
2805.306152	42.020954
2804.651611	64.931343
2803.997070	26.732267
2803.342285	26.728098
2802.687500	34.359341
2802.032471	57.256634
2801.377441	45.798164
2800.722412	53.422855
2800.067139	41.968555
2799.411621	38.147278
2798.756348	26.698929
2798.100586	53.389530
2797.445068	57.194141
2796.789307	49.560524
2796.133301	60.988049
2795.477539	22.866949
2794.821289	49.537327
2794.165283	57.149532
2793.509033	53.331238
2792.852539	45.705357
2792.196045	72.355522
2791.539551	15.230363
2790.882813	38.069965
2790.226074	26.644815
2789.569092	53.281311
2788.912109	64.688629
2788.255127	26.632338
2787.597900	64.668434
2786.940430	34.230885
2786.283203	34.225540
2785.625488	57.033657
2784.968018	49.421448
2784.310303	49.413731
2783.652588	38.004627
2782.994629	68.397644
2782.336426	22.795652
2781.678467	37.986820
2781.020264	60.769413
2780.361816	45.569942
2779.703369	53.156624
2779.044922	41.759392
2778.386230	37.957153
2777.727539	41.746346
2777.068604	53.123409
2776.409668	30.351488
2775.750732	41.726776
2775.091553	53.098503
2774.432373	30.337259
2773.772949	41.707211
2773.113525	49.282635
2772.453857	45.484554
2771.794189	75.795738
2771.134521	56.837914
2770.474609	34.097416
2769.814697	34.092087
2769.154541	60.598675
2768.494385	56.802372
2767.833984	56.793491
2767.173584	52.998966
2766.513184	60.560776
2765.852539	64.335762
2765.191895	34.054779
2764.531006	41.615997
2763.870117	71.870934
2763.209229	49.167156
2762.548096	64.285454
2761.886719	37.809055
2761.225586	15.121256
2760.563965	49.136395
2759.902588	52.907837
2759.240967	34.006859
2758.579102	56.669224
2757.917236	83.101852
2757.255371	33.990894
2756.593262	45.314095
2755.931152	45.307003
2755.269043	33.974934
2754.606689	45.292820
2753.944092	26.416676
2753.281494	67.917953
2752.618896	56.589436
2751.956055	49.036499
2751.293213	52.800266
2750.630371	49.021141
2749.967285	52.783730
2749.303955	37.696762
2748.640625	45.229027
2747.977295	79.138397
2747.313721	60.286480
2746.650146	52.742405
2745.986572	41.433971
2745.322754	52.725883
2744.658691	64.014252
2743.994873	75.299088
2743.330566	60.229832
2742.666504	52.692844
2742.002197	60.210957
2741.337646	63.964115
2740.673096	37.620052
2740.008545	37.614159
2739.343750	52.651566
2738.678955	60.163788
2738.013916	56.394707
2737.348877	37.590580
2736.683594	63.893967
2736.018311	60.126068
2735.353027	78.903091
2734.687500	41.323711
2734.021973	60.097790
2733.356201	93.888069
2732.690430	26.284538
2732.024658	90.104279
2731.358643	56.306343
2730.692383	37.531673
2730.026367	82.556732
2729.359863	26.263931
2728.693604	48.768219
2728.027100	45.009754
2727.360352	26.251572
2726.693604	52.494907
2726.026855	56.235718
2725.359863	52.478432
2724.692871	63.713814
2724.025635	71.198380
2723.358398	26.226866
2722.691162	52.445499
2722.023682	78.655899
2721.355957	67.408760
2720.688477	52.420807
2720.020508	82.362625
2719.352783	71.120186
2718.684814	67.366440
2718.016602	74.839851
2717.348389	63.603886
2716.680176	74.816353
2716.011719	67.324142
2715.343262	52.355000
2714.674561	71.042053
2714.005859	48.600086
2713.337158	59.806095
2712.668213	59.796703
2711.999023	52.313896
2711.329834	97.139114
2710.660645	44.826393
2709.991455	44.819351
2709.321777	48.546669
2708.652344	78.409225
2707.982666	33.598671
2707.312988	78.384583
2706.643066	67.176224
2705.972900	48.508537
2705.302979	41.039234
2704.632813	59.684052
2703.962402	48.485668
2703.291992	82.039772
2702.621582	70.841393
2701.950928	59.646534
2701.280273	78.273766
2700.609375	74.534721
2699.938477	78.249153
2699.267334	55.883465
2698.596191	48.424721
2697.925049	52.141499
2697.253662	59.580914
2696.582031	52.125099
2695.910645	59.562172
2695.239014	33.498451
2694.567139	48.379044
2693.895264	33.487915
2693.223145	55.804409
2692.551270	26.037962
2691.878906	48.348606
2691.206543	63.215153
2690.534180	74.359062
2689.861816	37.173683
2689.189209	85.486015
2688.516357	59.459171
2687.843506	63.165428
2687.170654	55.725430
2686.497559	48.287769
2685.824463	63.135605
2685.151123	48.272568
2684.477783	55.690350
2683.804199	70.530006
2683.130615	74.230423
2682.457031	40.820305
2681.783203	59.365639
2681.109375	55.646523
2680.435303	44.510208
2679.761230	25.960199
2679.086914	44.496189
2678.412598	74.148636
2677.738281	55.602715
2677.063721	44.475166
2676.389160	70.407921
2675.714355	59.281540
2675.039551	70.385742
2674.364502	74.078575
2673.689453	66.660217
2673.014404	33.324856
2672.339111	70.341385
2671.663574	74.031898
2670.988037	55.515175
2670.312500	74.008568
2669.636719	70.297058
2668.960938	73.985237
2668.285156	40.685467
2667.609131	70.263817
2666.932861	73.950256
2666.256592	59.150879
2665.580322	40.659817
2664.903809	51.740700
2664.227295	44.342178
2663.550781	73.891975
2662.874023	40.634178
2662.197021	70.175240
2661.520020	55.392765
2660.843018	66.460838
2660.165771	92.292160
2659.488525	70.130974
2658.811035	92.263039
2658.133545	51.659153
2657.455811	51.651005
2656.778076	55.331631
2656.100342	70.075668
2655.422363	51.626560
2654.744385	88.488708
2654.066162	51.610268
2653.387939	62.659718
2652.709473	70.020401
2652.031006	44.216431
2651.352539	51.577690
2650.673828	69.987244
2649.994873	88.390991
2649.316162	66.282776
2648.636963	51.545132
2647.958008	58.899422
2647.278809	66.251389
2646.599365	44.160618
2645.919922	84.627815
2645.240479	40.467781
2644.560791	58.852932
2643.880859	51.488182
2643.201172	47.802906
2642.520996	44.118790
2641.841064	62.491745
2641.160889	62.481873
2640.480469	40.423061
2639.800049	66.136375
2639.119629	55.104939
2638.438965	51.423149
2637.758301	80.795036
2637.077393	66.094582
2636.396484	88.112190
2635.715332	62.402935
2635.034180	44.042168
2634.353027	73.392014
2633.671631	77.049431
2632.989990	69.700371
2632.308350	66.021492
2631.626709	66.011055
2630.944824	69.667320
2630.262939	40.327335
2629.581055	76.976379
2628.898926	84.294128
2628.216553	47.636974
2627.534180	69.612259
2626.851807	51.285133
2626.169189	51.277023
2625.486572	58.593040
2624.803711	36.614861
2624.120850	76.879044
2623.437988	62.225567
2622.754883	73.194969
2622.071533	87.820068
2621.388184	58.537449
2620.704834	36.580116
2620.021240	87.778389
2619.337646	47.539104
2618.653809	54.844131
2617.969971	62.146847
2617.286133	62.137009
2616.602051	65.781715
2615.917725	62.117340
2615.233398	32.880447
2614.549072	69.403282
2613.864502	25.565584
2613.179932	76.684608
2612.495117	54.766048
2611.810303	65.708855
2611.125488	76.648186
2610.440430	65.688042
2609.755127	76.623917
2609.069824	40.129978
2608.384521	87.542450
2607.698975	47.411316
2607.013428	69.282486
2606.327637	51.042168
2605.641846	65.615250
2604.956055	58.315426
2604.270020	58.306187
2603.583740	43.722710
2602.897461	61.930695
2602.211182	76.490501
2601.524658	76.478378
2600.838135	69.183754
2600.151367	58.250774
2599.464600	80.082115
2598.777832	83.708946
2598.090820	58.223080
2597.403564	36.383656
2596.716309	36.377888
2596.029053	80.018669
2595.341553	72.732712
2594.654053	54.540882
2593.966309	54.532234
2593.278564	50.888683
2592.590820	76.320915
2591.902832	79.942566
2591.214600	76.296715
2590.526367	50.856407
2589.838135	72.640488
2589.149658	61.734619
2588.461182	79.879189
2587.772461	39.933258
2587.083740	68.964684
2586.394775	58.066311
2585.705811	43.542824
2585.016846	65.303871
2584.327637	47.156422
2583.638184	58.029465
2582.948975	36.262657
2582.259277	39.882595
2581.569824	47.126492
2580.879883	68.866249
2580.190186	90.599106
2579.500244	61.597610
2578.810059	68.833458
2578.119873	76.067009
2577.429688	68.811607
2576.739258	76.042854
2576.048584	79.651291
2575.358154	90.498459
2574.667236	39.813000
2573.976563	72.375778
2573.285645	90.455353
2572.594482	86.823341
2571.903320	83.192490
2571.212158	61.480331
2570.520752	68.702400
2569.829102	75.922165
2569.137451	75.910103
2568.445801	108.425774
2567.753906	25.295328
2567.062012	72.260880
2566.370117	36.124699
2565.677979	57.790333
2564.985596	72.226433
2564.293213	50.550468
2563.600830	72.203476
2562.908203	83.020798
2562.215332	68.571495
2561.522705	79.385956
2560.829590	72.157578
2560.136719	86.575325
2559.443604	68.527901
2558.750244	86.547798
2558.056885	46.872601
2557.363525	68.495216
2556.669922	68.484322
2555.976074	43.246380
2555.282227	118.908623
2554.588379	86.465248
2553.894287	79.247200
2553.200195	72.031448
2552.505859	86.423988
2551.811523	75.608955
2551.117188	75.596931
2550.422607	50.389935
2549.727783	43.184498
2549.032959	71.962715
2548.338135	39.573193
2547.643066	28.775925
2546.947998	75.524780
2546.252686	89.896141
2545.557373	68.310188
2544.861816	53.920513
2544.166260	75.476700
2543.470703	50.309792
2542.774902	104.196548
2542.078857	79.033073
2541.382813	64.653130
2540.686768	79.007904
2539.990479	75.404625
2539.294189	61.032120
2538.597656	78.970161
2537.901123	86.135551
2537.204346	64.591370
2536.507568	46.641895
2535.810791	78.919861
2535.113770	39.453644
2534.416504	71.722473
2533.719238	89.638809
2533.021973	93.209503
2532.324463	78.857010
2531.626953	53.757580
2530.929199	60.915546
2530.231445	35.826965
2529.533447	60.896133
2528.835449	85.957306
2528.137451	60.876720
2527.439209	71.608253
2526.740723	85.916206
2526.042236	53.689072
2525.343750	114.518425
2524.645020	71.562599
2523.946289	85.861427
2523.247314	60.808815
2522.548340	57.222698
2521.849121	53.637726
2521.149902	50.053894
2520.450684	64.344742
2519.751221	78.631027
2519.051514	64.324219
2518.351807	92.897934
2517.652100	53.586414
2516.952148	67.865295
2516.252197	64.283180
2515.552002	82.126511
2514.851807	103.534302
2514.151367	71.391571
2513.450928	57.104145
2512.750244	17.842197
2512.049561	74.925270
2511.348877	85.615211
2510.647949	49.934235
2509.946777	64.190910
2509.245605	60.615070
2508.544434	57.040371
2507.843018	71.289078
2507.141602	53.458275
2506.439941	71.266319
2505.738281	67.692192
2505.036377	85.492271
2504.334473	85.478622
2503.632568	60.537685
2502.930420	89.011787
2502.228027	56.958447
2501.525635	64.068016
2500.823242	64.057785
2500.120605	67.605751
2499.417969	64.037315
2498.715088	60.470028
2498.012207	85.355812
2497.309082	78.230324
2496.605957	99.549957
2495.902588	56.876598
2495.199219	71.084389
2494.495605	95.948586
2493.791992	67.508583
2493.088379	53.287731
2492.384521	46.175320
2491.680664	95.887253
2490.976563	88.770302
2490.272461	67.454643
2489.568115	46.145798
2488.863770	63.883965
2488.159180	56.776669
2487.454590	120.631126
2486.749756	74.495544
2486.044922	63.843113
2485.339844	60.286629
2484.634766	92.188332
2483.929688	99.263863
2483.224365	56.713135
2482.519043	92.144096
2481.813477	88.585922
2481.107666	60.228790
2480.402100	81.472969
2479.696045	99.168617
2478.990234	56.658714
2478.284180	49.568439
2477.577881	92.040947
2476.871582	70.789398
2476.165039	67.239159
2475.458496	67.228401
2474.751953	95.519798
2474.045166	42.446449
2473.338379	67.196121
2472.631348	63.649288
2471.924072	98.994156
2471.217041	77.768669
2470.509521	98.962456
2469.802246	60.074726
2469.094482	52.998623
2468.386963	67.120834
2467.679199	70.642197
2466.971191	81.225517
2466.263184	88.274460
2465.554932	98.851563
2464.846680	105.895416
2464.138428	59.997791
2463.429932	84.689194
2462.721436	70.563019
2462.012695	74.079300
2461.303955	81.121468
2460.594971	81.108467
2459.885986	88.147247
2459.176758	66.981171
2458.467529	91.643761
2457.758057	84.580681
2457.048584	73.996231
2456.338867	73.984367
2455.629150	73.972511
2454.919434	66.916779
2454.209473	66.906052
2453.499512	77.457741
2452.789307	77.445320
2452.078857	59.834515
2451.368408	63.344032
2450.657959	59.815323
2449.947266	80.913635
2449.236572	66.830978
2448.525879	98.471962
2447.814697	66.809540
2447.103760	87.893188
2446.392578	56.242615
2445.681152	70.291992
2444.969727	77.308784
2444.258301	84.323318
2443.546631	77.283974
2442.834717	59.709850
2442.122803	73.747391
2441.410889	98.314072
2440.698730	59.681107
2439.986572	45.631168
2439.274170	49.133369
2438.561768	73.688225
2437.849121	73.676392
2437.136475	70.156731
2436.423584	84.174553
2435.710693	49.093941
2434.997803	73.629089
2434.284424	70.111679
2433.571289	56.080334
2432.857910	56.071327
2432.144287	94.605171
2431.430908	77.073311
2430.717041	80.563698
2430.003174	77.048553
2429.289307	70.032883
2428.575195	59.518391
2427.861084	42.006229
2427.146729	62.999222
2426.432373	83.985466
2425.717773	80.473137
2425.003174	69.965393
2424.288330	94.438103
2423.573486	111.908653
2422.858643	76.924835
2422.143555	62.928383
2421.428223	52.431889
2420.712891	80.382637
2419.997559	90.852722
2419.281982	97.825661
2418.566162	87.330299
2417.850586	69.853004
2417.134521	90.794304
2416.418457	66.339012
2415.702393	83.783173
2414.986084	45.375252
2414.269775	59.327328
2413.553223	66.296349
2412.836670	66.285683
2412.120117	76.739494
2411.403076	104.627930
2410.686279	76.714806
2409.969238	73.215988
2409.251953	97.605606
2408.534668	101.075256
2407.817383	83.635025
2407.099854	94.074265
2406.382080	73.157097
2405.664307	66.179100
2404.946533	73.133545
2404.228516	69.639786
2403.510498	69.628578
2402.792236	45.251289
2402.073975	69.606155
2401.355469	62.635456
2400.636963	80.021309
2399.918213	69.572540
2399.199463	73.039406
2398.480469	73.027641
2397.761475	93.877563
2397.042480	83.433281
2396.323242	66.040710
2395.603760	79.931137
2394.884277	69.494141
2394.164795	72.957092
2393.445068	90.313278
2392.725098	59.041477
2392.005127	83.339241
2391.285156	79.853905
2390.564941	65.955635
2389.844727	72.886589
2389.124268	72.874840
2388.403809	76.332771
2387.683105	76.320465
2386.962402	76.308167
2386.241455	72.827873
2385.520508	104.023041
2384.799316	45.069386
2384.078125	76.258972
2383.356689	128.233047
2382.635254	48.512787
2381.913818	86.616005
2381.192139	62.353470
2380.470215	76.197502
2379.748291	62.333359
2379.026367	100.409767
2378.304199	90.008026
2377.581787	69.225777
2376.859375	86.518265
2376.136963	69.203445
2375.414307	100.328804
2374.691650	69.181114
2373.968750	55.335960
2373.245850	72.616730
2372.522705	58.775486
2371.799316	86.420586
2371.076172	82.950378
2370.352783	120.949776
2369.629150	100.199348
2368.905518	76.001030
2368.181641	93.258934
2367.457764	86.336929
2366.733643	51.793793
2366.009521	79.404327
2365.285400	69.036087
2364.561035	79.378685
2363.836426	58.661728
2363.111816	86.253311
2362.387207	89.688957
2361.662354	89.674477
2360.937256	82.763069
2360.212158	106.885025
2359.487061	51.710205
2358.761719	55.148643
2358.036377	34.462334
2357.310791	68.913528
2356.584961	86.127998
2355.859375	103.336891
2355.133301	86.100159
2354.407471	72.312447
2353.681152	92.958122
2352.955078	86.058426
2352.228516	103.253418
2351.502197	82.589378
2350.775635	68.813362
2350.048828	75.682457
2349.322021	116.944893
2348.594971	72.218987
2347.867920	85.961082
2347.140869	61.881973
2346.413330	82.495956
2345.686035	68.735512
2344.958496	109.959038
2344.230713	85.891602
2343.502930	89.312820
2342.775146	113.340240
2342.047119	85.849930
2341.319092	65.235390
2340.590820	96.120811
2339.862305	92.672928
2339.133789	72.067284
2338.405273	78.918060
2337.676514	65.182632
2336.947754	109.763512
2336.218750	75.450203
2335.489746	106.298981
2334.760498	109.710220
2334.031250	82.269348
2333.301758	92.538033
2332.572266	89.096275
2331.842529	65.098274
2331.112793	71.939079
2330.382813	68.502312
2329.652832	75.340340
2328.922607	78.752151
2328.192383	92.433205
2327.462158	58.189259
2326.731689	92.403267
2326.000977	99.231880
2325.270264	65.003456
2324.539307	99.199730
2323.808350	68.402527
2323.077393	68.391441
2322.346191	102.570549
2321.614746	78.624680
2320.883301	99.119400
2320.151855	85.433914
2319.420166	78.586464
2318.688232	88.822472
2317.956299	92.223770
2317.224365	95.623970
2316.492188	88.779289
2315.760010	68.280693
2315.027588	88.750511
2314.295166	98.974907
2313.562500	102.371231
2312.829590	51.177319
2312.096924	102.338036
2311.363770	64.803581
2310.630615	61.382912
2309.897461	85.240219
2309.164063	71.590172
2308.430664	126.114601
2307.697021	85.198746
2306.963379	71.555336
2306.229492	95.391640
2305.495605	78.344704
2304.761719	88.549210
2304.027344	74.914101
2303.293213	68.092674
2302.558838	95.314278
2301.824219	112.316452
2301.089600	71.462509
2300.354736	78.255760
2299.619873	88.448669
2298.885010	85.032997
2298.149658	105.423798
2297.414551	85.005394
2296.679199	95.190582
2295.943604	64.583122
2295.208008	61.174076
2294.472412	61.164143
2293.736572	101.923683
2293.000488	101.907135
2292.264404	81.512466
2291.528320	115.457245
2290.791992	78.090744
2290.055420	88.262154
2289.318848	95.036110
2288.582275	67.871910
2287.845459	67.860878
2287.108398	108.559769
2286.371582	105.150192
2285.634277	88.176155
2284.896973	71.207626
2284.159668	61.025188
2283.422119	88.133171
2282.684570	94.897217
2281.946777	91.493156
2281.208740	88.090202
2280.470703	74.525749
2279.732666	81.287598
2278.994385	101.592979
2278.256104	84.647057
2277.517578	71.091965
2276.779053	104.928215
2276.040283	115.063843
2275.301514	104.894089
2274.562500	87.961380
2273.823486	98.094818
2273.084229	91.314804
2272.344971	91.299950
2271.605469	98.046959
2270.865967	94.650627
2270.126221	67.596596
2269.386475	108.136948
2268.646484	97.983170
2267.906494	70.941780
2267.166260	91.196022
2266.426025	97.935341
2265.685547	108.048996
2264.945068	87.775520
2264.204346	101.262962
2263.463623	84.372070
2262.722656	107.978668
2261.981689	67.475677
2261.240723	97.823807
2260.499268	101.180565
2259.758057	70.814865
2259.016602	74.174919
2258.274902	94.389076
2257.533203	104.485168
2256.791260	97.728271
2256.049316	90.973572
2255.307129	70.745697
2254.564941	84.207352
2253.822754	104.400108
2253.080322	104.383102
2252.337646	80.799553
2251.594971	100.982986
2250.852051	84.138779
2250.109131	87.490074
2249.366211	63.924633
2248.623047	94.189369
2247.879639	60.540443
2247.136230	67.256195
2246.392578	73.969757
2245.648926	121.021690
2244.905273	104.196136
2244.161377	107.539764
2243.417236	73.921539
2242.673096	63.830917
2241.928955	83.974358
2241.184570	77.243813
2240.439941	70.515457
2239.695313	94.005272
2238.950439	124.200996
2238.205566	90.618378
2237.460693	83.892220
2236.715576	77.168251
2235.970215	90.574043
2235.224854	114.037590
2234.479492	80.483994
2233.733887	87.176765
2232.988037	93.867355
2232.242188	70.389023
2231.496338	127.349831
2230.750244	100.522934
2230.003906	77.055008
2229.257568	93.790787
2228.511230	83.728104
2227.764648	93.760170
2227.017822	103.788956
2226.270996	87.034592
2225.523926	100.408134
2224.776855	87.006172
2224.029785	103.721191
2223.282471	103.704254
2222.534912	100.342567
2221.787354	90.293564
2221.039795	66.873199
2220.291992	106.979637
2219.543945	90.249329
2218.795898	123.654800
2218.047852	133.659027
2217.299561	66.818596
2216.551025	96.871140
2215.802490	96.855309
2215.053955	80.143021
2214.305176	93.484909
2213.556152	96.807838
2212.807129	130.168579
2212.058105	116.798859
2211.308838	116.779770
2210.559326	80.064468
2209.809814	86.722328
2209.060303	110.052650
2208.310547	86.693977
2207.560547	103.348991
2206.810547	133.331741
2206.060303	93.316956
2205.310059	113.294914
2204.559814	99.949753
2203.809326	96.602295
2203.058594	96.586494
2202.307861	109.890793
2201.557129	113.202293
2200.806152	116.512711
2200.054932	103.180092
2199.303711	106.491058
2198.552246	93.164429
2197.800781	79.842163
2197.049316	99.786369
2196.297607	79.816032
2195.545654	109.729088
2194.793701	109.711128
2194.041504	113.017204
2193.289307	126.292671
2192.537109	99.688423
2191.784668	96.349701
2191.031982	86.368347
2190.279297	112.924736
2189.526367	119.547791
2188.773438	79.685478
2188.020508	96.270851
2187.267090	109.531654
2186.513916	86.283531
2185.760498	63.043022
2185.006836	109.477844
2184.253174	92.875076
2183.499268	119.391251
2182.745361	106.108177
2181.991211	86.198769
2181.237061	112.702995
2180.482666	109.370277
2179.728271	99.411240
2178.973877	96.081779
2178.218994	112.629150
2177.464355	76.177818
2176.709229	96.034554
2175.954346	86.085831
2175.198975	112.555328
2174.443848	102.607155
2173.688232	102.590332
2172.932861	82.720573
2172.177002	89.323578
2171.421387	119.078575
2170.665283	135.595032
2169.909424	109.119560
2169.153076	92.571114
2168.396729	92.555931
2167.640381	109.065887
2166.883789	92.525574
2166.127197	125.549820
2165.370361	105.708824
2164.613525	105.691483
2163.856445	89.162560
2163.099365	112.260353
2162.342041	99.037003
2161.584473	122.125595
2160.826904	92.404205
2160.069336	112.186691
2159.311523	112.168274
2158.553711	131.941025
2157.795654	95.641541
2157.037354	82.436066
2156.279053	79.125633
2155.520752	102.187164
2154.762207	112.057846
2154.003662	138.401672
2153.244873	125.199997
2152.485840	118.591049
2151.726807	69.166756
2150.967773	131.724564
2150.208252	98.777191
2149.448975	105.345032
2148.689453	92.161766
2147.929688	102.019478
2147.169922	121.745186
2146.410156	115.145439
2145.650146	124.994514
2144.889893	98.663666
2144.129639	108.512199
2143.369141	85.480408
2142.608643	95.327866
2141.847900	95.312202
2141.087158	85.438271
2140.326416	121.565254
2139.565186	95.265213
2138.804199	82.111679
2138.042725	124.789238
2137.281494	114.918564
2136.519775	91.919731
2135.758301	141.139236
2134.996338	72.198898
2134.234619	124.686684
2133.472412	98.420670
2132.710449	101.684631
2131.947998	127.904785
2131.185547	114.767464
2130.423096	91.798866
2129.660400	91.783768
2128.897705	78.658859
2128.134766	88.476654
2127.371826	131.054962
2126.608643	91.723381
2125.845215	114.635361
2125.081787	111.341736
2124.318359	108.049194
2123.554688	104.757736
2122.790771	94.921066
2122.026855	117.813660
2121.262939	124.338387
2120.498779	137.404022
2119.734375	111.213509
2118.969971	107.924751
2118.205322	101.367165
2117.440674	120.966698
2116.676025	75.183136
2115.911133	94.780510
2115.145996	107.835922
2114.380859	107.818161
2113.615479	101.267044
2112.850098	111.048790
2112.084473	91.436882
2111.318848	114.277267
2110.552979	150.168243
2109.787109	107.711639
2109.020996	101.166992
2108.254883	104.413231
2107.488525	130.495041
2106.722168	130.473526
2105.955566	127.190727
2105.188965	120.648239
2104.422119	84.765869
2103.655029	101.050339
2102.887939	114.070282
2102.120850	107.534248
2101.353516	110.774597
2100.585938	114.013870
2099.818359	120.509079
2099.050781	117.232742
2098.282959	113.957481
2097.514893	100.917122
2096.746826	110.665039
2095.978760	100.883835
2095.210449	133.404999
2094.441895	84.584335
2093.673340	123.602867
2092.904541	104.069450
2092.135742	87.794113
2091.366699	110.537308
2090.597656	107.268509
2089.828369	104.000786
2089.059082	126.730034
2088.289551	129.958069
2087.520020	107.197716
2086.750244	110.427902
2085.980469	155.872482
2085.210449	97.404221
2084.440186	103.880676
2083.670166	129.829407
2082.899658	113.581978
2082.129150	120.052551
2081.358643	139.497498
2080.587891	103.794945
2079.816895	116.750031
2079.045898	142.670914
2078.274902	103.743523
2077.503662	116.692192
2076.732178	129.636566
2075.960693	126.374779
2075.188965	97.195305
2074.417236	84.222015
2073.645264	132.789688
2072.873291	119.814804
2072.101074	100.368782
2071.328857	93.877861
2070.556396	126.228676
2069.783936	132.680008
2069.011230	113.244698
2068.238525	100.285866
2067.465576	109.972771
2066.692627	122.890427
2065.919434	126.103531
2065.145996	87.288010
2064.372559	93.738289
2063.599121	122.809166
2062.825439	145.407852
2062.051514	122.768555
2061.277588	90.446075
2060.503662	93.660797
2059.729248	119.478493
2058.955078	80.715363
2058.180664	93.614326
2057.406006	109.736572
2056.631348	109.718414
2055.856445	145.191528
2055.081543	90.326447
2054.306396	129.016418
2053.531250	132.219955
2052.755859	103.178978
2051.980225	132.176193
2051.204590	125.707756
2050.428955	135.355179
2049.653076	103.110680
2048.877197	96.650261
2048.101074	135.287964
2047.324707	112.721306
2046.548340	109.482559
2045.771851	90.147179
2044.995239	115.884323
2044.218506	148.049896
2043.441528	106.192116
2042.664551	151.218262
2041.887329	112.590691
2041.110107	135.086456
2040.332642	118.985016
2039.555176	125.395859
2038.777466	106.086609
2037.999634	106.069031
2037.221802	109.265137
2036.443726	89.968140
2035.665527	128.504623
2034.887207	112.422905
2034.108765	115.615822
2033.330200	125.229713
2032.551514	150.892838
2031.772705	112.348381
2030.993774	125.167442
2030.214600	112.311134
2029.435425	141.167725
2028.656128	153.975632
2027.876587	128.291748
2027.097046	115.443420
2026.317261	134.661652
2025.537476	125.022224
2024.757446	121.796326
2023.977295	121.776123
2023.197021	115.347717
2022.416626	118.532150
2021.636230	99.294243
2020.855591	153.720413
2020.074707	144.088974
2019.293823	105.647720
2018.512817	124.835678
2017.731689	124.814957
2016.950439	143.993362
2016.168945	115.175568
2015.387451	115.156448
2014.605713	153.516449
2013.823975	118.315948
2013.041992	147.071091
2012.260010	159.833328
2011.477783	137.433838
2010.695435	115.041786
2009.912964	118.217758
2009.130371	137.365387
2008.347656	114.984482
2007.564819	162.867630
2006.781860	134.104004
2005.998779	121.312042
2005.215576	98.948647
2004.432129	127.654457
2003.648682	146.778244
2002.864990	146.753845
2002.081299	111.641983
2001.297363	153.083572
2000.513428	121.171021
1999.729248	124.339058
1998.944946	130.693695
1998.160522	140.233337
1997.375977	137.023438
1996.591309	140.186722
1995.806519	117.864693
1995.021606	159.250137
1994.236572	127.378922
1993.451416	117.805916
1992.666016	127.336563
1991.880615	111.400970
1991.094971	114.564796
1990.309326	124.091217
1989.523438	162.246140
1988.737549	133.592255
1987.951416	139.930496
1987.165161	146.266647
1986.378784	143.063126
1985.592285	162.111237
1984.805664	149.371780
1984.018921	155.702103
1983.232056	114.374352
1982.444946	139.767609
1981.657837	136.568344
1980.870605	149.247528
1980.083130	155.572586
1979.295654	136.500153
1978.507935	165.042480
1977.720093	130.107986
1976.932129	152.296173
1976.144165	142.753891
1975.355957	190.306839
1974.567627	123.678848
1973.779053	168.048386
1972.990479	171.190598
1972.201782	174.331757
1971.412964	142.611313
1970.623901	145.756180
1969.834839	155.236145
1969.045532	164.712952
1968.256226	161.518494
1967.466675	148.825577
1966.677002	189.958435
1965.887207	151.941422
1965.097290	151.916107
1964.307251	174.041519
1963.517090	145.537750
1962.726807	180.310196
1961.936401	132.837997
1961.145874	151.789551
1960.355103	164.411255
1959.564331	139.094025
1958.773315	139.070831
1957.982178	192.770599
1957.191040	154.822693
1956.399658	192.706314
1955.608154	161.088257
1954.816528	186.325912
1954.024780	138.931747
1953.232910	186.263763
1952.440918	170.450256
1951.648682	167.265869
1950.856445	145.149933
1950.063965	151.435532
1949.271484	129.329605
1948.478760	173.461975
1947.685913	176.586365
1946.893066	173.404083
1946.099976	151.309219
1945.306763	157.587463
1944.513428	148.107498
1943.719971	138.630676
1942.926270	163.808914
1942.132568	185.829071
1941.338745	182.648941
1940.544678	154.281097
1939.750610	176.291809
1938.956299	116.459068
1938.161865	207.703110
1937.367310	195.082458
1936.572632	151.006348
1935.777832	191.871857
1934.982910	179.260147
1934.187866	182.374588
1933.392700	188.631851
1932.597290	163.453629
1931.801880	163.426315
1931.006226	188.537323
1930.210571	163.371704
1929.414673	182.191833
1928.618652	226.131378
1927.822510	172.710373
1927.026245	182.100494
1926.229858	191.487473
1925.433350	188.316849
1924.636719	172.594925
1923.839844	181.978760
1923.042969	172.537216
1922.245850	191.327469
1921.448730	178.751511
1920.651367	175.586151
1919.853882	169.286896
1919.056274	175.527420
1918.258545	162.962494
1917.460693	197.402298
1916.662720	216.166351
1915.864624	181.674652
1915.066284	187.907852
1914.267944	191.007690
1913.469360	159.668228
1912.670776	178.422867
1911.871948	215.949448
1911.072998	184.621521
1910.273926	156.432724
1909.474731	190.815994
1908.675415	146.997543
1907.875977	215.768784
1907.076294	206.352982
1906.276611	215.696548
1905.476807	209.409409
1904.676758	199.999374
1903.876587	162.472290
1903.076294	199.932404
1902.275879	165.541290
1901.475342	199.865448
1900.674683	174.852966
1899.873901	202.920349
1899.072998	206.007690
1898.271851	165.402710
1897.470703	187.216980
1896.669312	224.622726
1895.867920	171.558060
1895.066284	184.004166
1894.264526	193.327911
1893.462646	202.648529
1892.660645	165.208801
1891.858521	227.513596
1891.056152	174.501724
1890.253784	190.050385
1889.451172	199.363693
1888.648560	196.215729
1887.845703	242.893036
1887.042725	193.036453
1886.239624	211.681900
1885.436401	171.184601
1884.633057	177.379730
1883.829590	205.352615
1883.025879	189.763763
1882.222168	180.400864
1881.418213	230.128006
1880.614258	183.449661
1879.810059	186.527679
1879.005737	208.254303
1878.201294	226.865875
1877.396729	214.398880
1876.592041	245.429993
1875.787231	205.008377
1874.982178	183.234299
1874.177124	183.203552
1873.371826	201.800537
1872.566406	192.454361
1871.760986	220.354294
1870.955322	242.038727
1870.149536	269.920929
1869.343506	223.345352
1868.537476	232.612335
1867.731323	226.371323
1866.924927	213.931488
1866.118530	192.196014
1865.311890	216.959045
1864.505127	226.219284
1863.698242	192.099182
1862.891235	207.556183
1862.084106	213.715973
1861.276855	210.583267
1860.469482	222.933044
1859.661865	222.895584
1858.854126	225.953384
1858.046387	241.389084
1857.238403	228.971664
1856.430298	197.996262
1855.622070	250.546906
1854.813721	204.115021
1854.005249	235.002029
1853.196533	197.863174
1852.387817	222.558640
1851.578857	231.792938
1850.769775	234.844025
1849.960693	197.730133
1849.151367	197.696884
1848.341919	206.929123
1847.532227	253.213943
1846.722534	231.559158
1845.912720	197.563919
1845.102661	191.357849
1844.292603	219.098740
1843.482300	219.061874
1842.671875	215.940170
1841.861328	215.903824
1841.050659	222.035141
1840.239868	200.414658
1839.428833	258.953827
1838.617798	237.334381
1837.806519	255.784912
1836.995117	221.848358
1836.183716	252.618103
1835.372070	240.254822
1834.560303	264.851746
1833.748291	246.332230
1832.936279	215.504410
1832.124146	240.093048
1831.311768	233.897430
1830.499390	212.318481
1829.686768	215.359283
1828.874023	230.703232
1828.061157	233.739899
1827.248169	224.475494
1826.434937	221.363205
1825.621704	218.251938
1824.808228	242.802780
1823.994751	242.761871
1823.181030	224.286469
1822.367188	230.392471
1821.553223	242.639175
1820.739136	257.952606
1819.924927	276.331207
1819.110474	208.748383
1818.296021	236.337006
1817.481323	257.778717
1816.666626	239.325607
1815.851685	211.675415
1815.036621	272.984558
1814.221436	242.271286
1813.406006	223.833191
1812.590576	223.795441
1811.774902	239.083557
1810.959229	248.237213
1810.143311	245.131195
1809.327271	232.835358
1808.511108	254.237823
1807.694824	241.944580
1806.878418	238.841675
1806.061768	257.170715
1805.245117	263.249390
1804.428223	229.539230
1803.611206	235.620499
1802.794067	223.342773
1801.976807	226.364059
1801.159424	220.208939
1800.341919	259.924988
1799.524170	247.651413
1798.706421	262.894135
1797.888428	253.680588
1797.070313	216.967239
1796.252075	259.705658
1795.433716	213.839127
1794.615234	277.943909
1793.796509	232.089783
1792.977783	259.530243
1792.158813	241.169724
1791.339844	235.024460
1790.520630	247.191757
1789.701294	250.201233
1788.881714	271.513977
1788.062134	253.166885
1787.242432	277.521606
1786.422485	216.491257
1785.602417	271.330505
1784.782349	252.995804
1783.962036	277.334045
1783.141479	231.580505
1782.320923	268.100525
1781.500244	261.963043
1780.679321	264.964294
1779.858398	249.694244
1779.037231	249.652039
1778.215942	258.741882
1777.394531	276.959167
1776.572998	243.439423
1775.751221	270.780548
1774.929443	264.650818
1774.107422	273.730408
1773.285278	307.134369
1772.463013	267.556946
1771.640625	215.833298
1770.818115	267.466431
1769.995483	261.343414
1769.172607	282.567749
1768.349731	243.027893
1767.526611	294.621460
1766.703369	255.092926
1765.880005	258.086060
1765.056519	233.756027
1764.232910	264.069244
1763.409058	267.059296
1762.585083	294.322357
1761.761108	242.698990
1760.936890	269.956909
1760.112549	303.270996
1759.288086	272.897675
1758.463379	278.914825
1757.638672	272.805237
1756.813721	278.820343
1755.988647	293.923828
1755.163574	281.755524
1754.338257	287.766022
1753.512695	251.374039
1752.687134	275.556183
1751.861328	272.481903
1751.035522	278.489868
1750.209473	299.628510
1749.383301	236.030945
1748.557007	242.041992
1747.730591	263.176056
1746.903931	281.278442
1746.077271	317.518585
1745.250366	302.347412
1744.423340	329.502808
1743.596313	305.267334
1742.768921	268.952332
1741.941528	262.863892
1741.114014	259.798401
1740.286255	292.978729
1739.458374	259.710266
1738.630493	280.801849
1737.802368	235.471283
1736.973999	292.779999
1736.145630	298.765991
1735.317139	316.819275
1734.488403	286.597382
1733.659546	286.548737
1732.830566	274.436951
1732.001465	283.436218
1731.172241	277.358582
1730.342896	292.382782
1729.513306	286.305664
1728.683594	265.164459
1727.853882	298.259369
1727.023926	292.184296
1726.193726	262.017731
1725.363525	301.118652
1724.533203	286.014160
1723.702637	304.026581
1722.871948	267.859100
1722.041138	285.868469
1721.210205	285.819916
1720.379150	294.795715
1719.547974	288.730438
1718.716553	267.631683
1717.885010	327.717957
1717.053467	321.650116
1716.221558	264.489746
1715.389648	264.444794
1714.557617	261.395325
1713.725342	270.362976
1712.893066	267.313507
1712.060547	312.313263
1711.227905	294.245178
1710.395142	282.187195
1709.562256	297.146606
1708.729126	294.095123
1707.895874	267.040985
1707.062622	302.994995
1706.229126	290.945709
1705.395508	290.896210
1704.561646	305.838867
1703.727783	317.778473
1702.893677	365.682831
1702.059570	305.682831
1701.225220	311.623596
1700.390747	299.587097
1699.556030	299.536133
1698.721313	257.557220
1697.886353	320.394592
1697.051392	326.327728
1696.216187	281.372345
1695.380859	311.252594
1694.545410	305.215027
1693.709717	323.113831
1692.874023	341.006561
1692.038086	281.132996
1691.202026	322.948853
1690.365845	251.139679
1689.529541	254.086166
1688.692993	328.761414
1687.856445	322.728973
1687.019653	331.637177
1686.182739	340.542328
1685.345703	319.577393
1684.508545	298.619598
1683.671143	313.497162
1682.833740	334.339996
1681.996094	271.604980
1681.158325	313.336975
1680.320435	292.398010
1679.482422	366.926788
1678.644287	298.263641
1677.805908	319.087708
1676.967407	304.125214
1676.128784	324.941162
1675.290039	309.982758
1674.451172	312.910034
1673.612183	345.632141
1672.772949	294.928864
1671.933594	345.514282
1671.094116	342.477325
1670.254517	309.665802
1669.414795	309.613007
1668.574829	315.513275
1667.734863	315.459473
1666.894653	318.381195
1666.054321	309.401825
1665.213867	353.966705
1664.373169	327.140289
1663.532471	333.031464
1662.691528	288.379822
1661.850464	356.697662
1661.009277	323.945099
1660.167969	335.775696
1659.326538	317.892639
1658.484863	335.661072
1657.643066	291.054626
1656.801147	374.149200
1655.959106	320.644562
1655.116943	338.400360
1654.274658	338.342590
1653.432129	332.350006
1652.589478	323.392548
1651.746704	314.438141
1650.903809	347.009247
1650.060791	367.707672
1649.217529	352.820465
1648.374146	340.902710
1647.530640	373.446991
1646.687012	352.639679
1645.843262	355.542297
1644.999390	343.632172
1644.155273	355.420807
1643.311035	305.017395
1642.466675	337.534393
1641.622192	381.881531
1640.777588	387.735901
1639.932739	355.117218
1639.087769	381.685760
1638.242798	334.287720
1637.397461	402.259827
1636.552124	399.233765
1635.706665	390.295166
1634.860962	360.665649
1634.015137	342.869354
1633.169189	322.123871
1632.323120	372.299713
1631.476929	372.236023
1630.630493	369.218597
1629.783936	392.781403
1628.937256	374.997772
1628.090454	342.459076
1627.243530	392.579865
1626.396484	401.366364
1625.549194	357.036896
1624.701782	395.328583
1623.854248	389.361511
1623.006592	418.786896
1622.158691	380.382141
1621.310791	365.576080
1620.462646	377.304260
1619.614380	394.922760
1618.765991	412.535248
1617.917358	377.110504
1617.068726	353.480560
1616.219849	421.158875
1615.370850	379.861481
1614.521729	403.349670
1613.672363	394.449646
1612.822998	391.438934
1611.973389	382.543945
1611.123657	370.709839
1610.273804	444.187286
1609.423828	408.817566
1608.573608	411.688171
1607.723389	429.258392
1606.872925	517.373474
1606.022339	443.806854
1605.171509	431.976349
1604.320679	387.830658
1603.469604	393.639374
1602.618408	449.376892
1601.767090	416.997253
1600.915649	402.245270
1600.064087	434.467834
1599.212280	393.302094
1598.360352	422.580505
1597.508301	404.903534
1596.656128	401.900513
1595.803833	410.630829
1594.951294	413.492981
1594.098633	433.946564
1593.245850	425.077393
1592.392944	466.039398
1591.539795	389.764832
1590.686646	404.348236
1589.833252	395.490204
1588.979736	442.287201
1588.126099	474.425385
1587.272217	421.639069
1586.418335	406.928986
1585.564209	447.837738
1584.709961	421.421997
1583.855591	430.127777
1583.000977	415.426239
1582.146362	412.429901
1581.291504	435.755341
1580.436523	438.604553
1579.581421	447.299805
1578.726074	447.222992
1577.870605	464.681335
1577.015137	447.069397
1576.159424	382.719147
1575.303467	400.179535
1574.447510	432.236450
1573.591309	414.642120
1572.734985	455.444061
1571.878540	420.337677
1571.021973	385.243317
1570.165161	399.767151
1569.308350	420.121002
1568.451294	402.546783
1567.594116	419.976593
1566.736694	449.064453
1565.879272	405.254730
1565.021606	437.250061
1564.163818	448.832886
1563.305908	405.045746
1562.447876	393.322113
1561.589600	463.166382
1560.731201	404.836823
1559.872681	404.767212
1559.014038	381.405640
1558.155273	401.716980
1557.296265	413.289856
1556.437134	410.308777
1555.577881	421.876129
1554.718506	386.895691
1553.859009	427.547974
1552.999268	412.934448
1552.139404	389.603485
1551.279419	438.955231
1550.419312	366.217499
1549.558960	444.616119
1548.698608	403.862762
1547.838013	435.748108
1546.977173	380.487823
1546.116333	400.750244
1545.255249	423.909149
1544.394165	449.963043
1543.532837	409.250732
1542.671265	414.984222
1541.809692	426.518707
1540.947876	411.940308
1540.085938	426.371796
1539.223877	434.998322
1538.361694	376.933594
1537.499268	429.050476
1536.636841	434.773529
1535.774170	460.780548
1534.911377	394.058838
1534.048340	434.548828
1533.185303	382.337067
1532.322021	440.191040
1531.458618	382.205292
1530.594971	385.034393
1529.731323	434.174469
1528.867432	405.159637
1528.003418	445.598755
1527.139282	407.912933
1526.275024	425.197601
1525.410522	401.988281
1524.545898	396.135956
1523.681152	407.631653
1522.816284	410.451843
1521.951172	419.051086
1521.086060	476.768982
1520.220703	378.460358
1519.355225	401.503174
1518.489502	392.769867
1517.623779	433.127319
1516.757813	424.391510
1515.891724	432.977844
1515.025513	421.359039
1514.159058	450.141541
1513.292480	386.593323
1512.425781	418.256378
1511.558960	418.184174
1510.692017	395.043732
1509.824829	380.560364
1508.957520	423.732697
1508.090088	478.418243
1507.222534	420.704834
1506.354736	423.513214
1505.486938	426.320618
1504.618896	408.966705
1503.750610	440.571106
1502.882324	452.011230
1502.013794	446.176025
1501.145142	417.318359
1500.276367	434.511627
1499.407471	451.698944
1498.538330	448.744324
1497.669067	399.773590
1496.799683	465.842651
1495.930176	442.761566
1495.060547	413.939240
1494.190674	413.867706
1493.320679	396.554657
1492.450562	442.455475
1491.580200	422.270874
1490.709717	442.302521
1489.839233	442.226044
1488.968384	433.536255
1488.097534	410.496460
1487.226440	453.477081
1486.355347	510.790863
1485.483887	424.629059
1484.612427	413.081146
1483.740845	413.009674
1482.869019	447.349731
1481.997070	478.810791
1481.124878	455.794861
1480.252686	458.582123
1479.380249	484.293549
1478.507690	455.558289
1477.635010	444.020813
1476.762207	435.351501
1475.889160	452.458099
1475.015991	438.063965
1474.142700	512.417480
1473.269165	500.880096
1472.395630	469.314911
1471.521851	532.179626
1470.647949	514.923340
1469.773804	514.834167
1468.899658	506.165955
1468.025269	511.796661
1467.150757	511.708038
1466.276001	514.477600
1465.401245	560.111877
1464.526245	582.872620
1463.651123	531.350586
1462.775879	619.801575
1461.900391	625.405701
1461.024780	608.165833
1460.149048	665.155334
1459.273193	562.287109
1458.397217	687.754822
1457.520996	639.130188
1456.644653	676.105347
1455.768188	650.317688
1454.891479	658.760254
1454.014648	661.497314
1453.137695	692.741272
1452.260620	632.765015
1451.383423	644.054443
1450.505981	632.545532
1449.628418	640.982300
1448.750732	589.601379
1447.872803	666.390320
1446.994873	634.954102
1446.116699	566.519958
1445.238403	651.811829
1444.359863	606.165222
1443.481201	569.070435
1442.602417	577.506226
1441.723511	648.515137
1440.844482	563.086426
1439.965210	588.579102
1439.085815	582.791199
1438.206299	571.320435
1437.326538	585.430725
1436.446777	548.390869
1435.566772	548.295654
1434.686646	528.317505
1433.806274	593.544006
1432.925781	542.331177
1432.045166	528.042297
1431.164429	525.112122
1430.283569	522.182983
1429.402466	519.254822
1428.521240	493.631927
1427.639893	470.854370
1426.758301	527.492126
1425.876709	533.071472
1424.994873	518.803833
1424.112793	445.016663
1423.230713	467.611389
1422.348389	518.533386
1421.465942	470.281891
1420.583374	456.037476
1419.700562	470.118378
1418.817627	453.047363
1417.934570	464.292816
1417.051392	413.261993
1416.167969	461.301300
1415.284546	438.584473
1414.400757	438.508179
1413.516968	489.346588
1412.633057	390.277924
1411.748901	446.762238
1410.864624	452.338745
1409.980103	455.086670
1409.095459	426.746155
1408.210815	387.112915
1407.325806	494.401276
1406.440796	454.770020
1405.555542	440.570038
1404.670166	420.727631
1403.784668	426.300751
1402.899048	454.453491
1402.013184	457.196564
1401.127197	400.682770
1400.241089	397.791809
1399.354736	411.826172
1398.468262	383.552094
1397.581665	439.880219
1396.694946	445.442108
1395.807983	442.545776
1394.920898	436.832153
1394.033691	453.662750
1393.146362	487.391205
1392.258789	492.939880
1391.371094	464.690918
1390.483276	444.899231
1389.595337	506.758911
1388.707153	498.226105
1387.818848	450.295380
1386.930420	472.727753
1386.041748	436.071594
1385.152954	520.381836
1384.264038	464.043457
1383.375000	463.962555
1382.485718	424.522003
1381.596313	438.502563
1380.706787	559.274292
1379.817139	488.928436
1378.927246	486.033752
1378.037231	435.387817
1377.147095	536.416565
1376.256714	516.667175
1375.366333	499.732147
1374.475586	508.065979
1373.584839	465.879761
1372.693970	513.500732
1371.802856	460.106140
1370.911499	465.635925
1370.020142	485.186493
1369.128540	485.101837
1368.236816	479.410034
1367.344971	510.160217
1366.453003	515.676331
1365.560791	523.992615
1364.668457	509.893097
1363.775879	473.389496
1362.883301	506.914429
1361.990479	490.025055
1361.097534	509.537048
1360.204346	526.243042
1359.311035	540.144531
1358.417603	500.875580
1357.524048	545.551270
1356.630249	486.714539
1355.736450	564.937744
1354.842285	531.284241
1353.948120	525.599915
1353.053711	545.074829
1352.159180	497.468567
1351.264526	536.501526
1350.369751	541.995361
1349.474731	547.487244
1348.579590	552.977173
1347.684204	547.295837
1346.788818	524.865479
1345.893188	491.277496
1344.997314	493.982483
1344.101440	496.686462
1343.205322	502.179382
1342.309082	535.564331
1341.412720	560.570862
1340.516113	596.722290
1339.619385	607.769653
1338.722534	563.064209
1337.825439	549.030884
1336.928223	532.216003
1336.030884	551.624817
1335.133423	557.099304
1334.235718	531.936707
1333.337891	542.981689
1332.439941	584.647217
1331.541870	573.410706
1330.643555	584.442566
1329.745117	589.905396
1328.846436	570.327515
1327.947754	598.043701
1327.048828	570.127869
1326.149780	614.518005
1325.250488	581.048767
1324.351074	569.828430
1323.451538	603.078552
1322.551880	589.079590
1321.651978	605.645508
1320.751953	544.429932
1319.851807	622.096680
1318.951416	588.666931
1318.050903	610.773743
1317.150269	594.012146
1316.249512	563.380127
1315.348511	566.056152
1314.447388	563.182678
1313.546021	560.310120
1312.644653	560.211914
1311.743042	557.340881
1310.841309	551.698486
1309.939331	579.320435
1309.037231	534.876770
1308.135010	545.866577
1307.232666	567.934143
1306.330078	551.215027
1305.427368	476.343475
1304.524536	570.404358
1303.621460	526.008850
1302.718262	550.828369
1301.814941	520.289307
1300.911499	531.266052
1300.007813	556.071594
1299.104004	508.951355
1298.199951	508.862061
1297.295898	525.363159
1296.391602	563.975159
1295.487061	544.527466
1294.582520	522.322998
1293.677734	489.073761
1292.772827	497.275848
1291.867676	483.377777
1290.962402	486.054565
1290.057007	466.640900
1289.151489	485.883911
1288.245728	480.278137
1287.339844	493.992462
1286.433838	471.831726
1285.527588	438.643677
1284.621216	468.907715
1283.714722	504.676697
1282.808105	479.772217
1281.901245	515.526672
1280.994263	432.745819
1280.087036	424.402222
1279.179810	443.615265
1278.272217	429.762848
1277.364624	493.038666
1276.456787	429.611786
1275.548828	421.275970
1274.640747	465.249176
1273.732544	429.385284
1272.824097	434.813782
1271.915405	434.737305
1271.006714	429.158844
1270.097778	407.079102
1269.188721	431.757965
1268.279541	417.934204
1267.370117	417.860687
1266.460571	398.546997
1265.550781	417.713715
1264.640991	425.883118
1263.730957	417.566742
1262.820679	436.719940
1261.910400	411.927460
1260.999878	428.329163
1260.089233	425.508575
1259.178345	392.496887
1258.267334	386.939301
1257.356201	417.052643
1256.444824	411.492676
1255.533447	447.076660
1254.621704	372.955353
1253.709961	394.824371
1252.797974	413.944305
1251.885864	356.313141
1250.973633	427.500488
1250.061157	438.384827
1249.148560	388.997986
1248.235840	408.102051
1247.322876	424.460907
1246.409790	372.364624
1245.496582	405.148926
1244.583130	361.285370
1243.669556	399.533112
1242.755859	344.741791
1241.841919	410.334595
1240.927856	393.851776
1240.013672	369.170959
1239.099365	377.308258
1238.184814	363.573547
1237.270142	368.975769
1236.355225	360.712708
1235.440186	368.845673
1234.525024	368.780640
1233.609741	344.134583
1232.694214	374.112091
1231.778564	382.236908
1230.862671	341.222748
1229.946777	346.621185
1229.030640	403.865234
1228.114258	343.770569
1227.197876	376.444183
1226.281128	357.286163
1225.364380	365.403809
1224.447388	313.537476
1223.530273	332.563660
1222.613037	329.779510
1221.695557	367.870911
1220.777954	370.530457
1219.860229	367.741028
1218.942261	359.505554
1218.024170	386.672546
1217.105957	340.320648
1216.187500	348.426819
1215.268921	329.314087
1214.350220	342.861542
1213.431274	307.432617
1212.512207	397.143677
1211.593018	315.483093
1210.673706	326.304169
1209.754150	342.558838
1208.834351	331.625366
1207.914551	328.849030
1206.994507	331.508209
1206.074219	306.998413
1205.153931	347.688965
1204.233398	317.753296
1203.312744	344.850708
1202.391846	314.926086
1201.470825	285.012024
1200.549683	309.386932
1199.628296	317.472534
1198.706787	303.851624
1197.785156	339.060150
1196.863281	349.848206
1195.941284	319.959595
1195.019165	322.614044
1194.096802	346.952057
1193.174438	317.079773
1192.251709	306.185272
1191.328979	319.676727
1190.406006	335.872040
1189.482788	324.979950
1188.559570	297.845581
1187.636108	362.765869
1186.712402	300.446899
1185.788696	308.512482
1184.864746	332.809814
1183.940552	324.635040
1183.016357	321.872772
1182.091919	316.407135
1181.167236	337.981964
1180.242554	291.964691
1179.317505	321.644897
1178.392456	289.158905
1177.467163	329.636810
1176.541748	318.772583
1175.616211	321.417114
1174.690430	318.659668
1173.764526	302.403076
1172.838501	348.241821
1171.912231	345.481049
1170.985840	334.625488
1170.059204	380.434143
1169.132446	307.530548
1168.205566	372.207855
1167.278564	315.511597
1166.351318	342.417694
1165.423828	355.835632
1164.496338	336.905823
1163.568604	355.709503
1162.640747	331.397797
1161.712646	293.625671
1160.784424	414.773712
1159.856079	355.457275
1158.927490	352.701874
1157.998779	352.639313
1157.069946	371.416748
1156.140869	387.496582
1155.211670	376.665955
1154.282349	384.669098
1153.352783	389.979889
1152.423096	389.910706
1151.493164	457.055573
1150.563232	333.322571
1149.632935	405.828827
1148.702637	368.136963
1147.772095	411.058105
1146.841431	381.437195
1145.910522	346.455383
1144.979492	378.616547
1144.048340	370.495087
1143.116943	324.796722
1142.185425	327.422852
1141.253784	356.881195
1140.321899	295.112488
1139.389893	337.977905
1138.457764	345.963531
1137.525391	302.999512
1136.592896	316.350342
1135.660278	318.974609
1134.727417	313.557983
1133.794434	353.694855
1132.861206	305.409485
1131.927856	299.998108
1130.994385	310.657104
1130.060669	337.377899
1129.126831	348.026459
1128.192871	310.491486
1127.258667	299.731598
1126.324341	283.624115
1125.389893	318.351593
1124.455200	310.270752
1123.520386	302.192749
1122.585327	272.727264
1121.650146	307.431946
1120.714844	267.284576
1119.779297	256.547546
1118.843628	307.267914
1117.907837	328.584625
1116.971802	275.107269
1116.035645	259.035522
1115.099365	304.379333
1114.162842	277.629974
1113.226196	317.616241
1112.289307	293.542603
1111.352417	269.477509
1110.415161	242.753357
1109.477905	293.385895
1108.540405	314.667023
1107.602661	255.954712
1106.664917	255.909149
1105.726807	295.842255
1104.788696	303.783905
1103.850342	303.729797
1102.911865	306.339539
1101.973145	319.601715
1101.034302	284.927429
1100.095337	298.188690
1099.156128	266.192474
1098.216797	316.712616
1097.277344	300.690308
1096.337646	311.278748
1095.397827	276.642914
1094.457764	295.210510
1093.517700	295.157898
1092.577271	303.081116
1091.636841	329.608398
1090.696167	321.576691
1089.755249	324.176544
1088.814209	371.939545
1087.873047	379.841949
1086.931763	470.070190
1085.990234	517.781616
1085.048584	562.821167
1084.106689	509.633911
1083.164673	448.503998
1082.222412	427.196838
1081.280151	389.979706
1080.337524	381.952789
1079.394897	371.276733
1078.452026	307.574402
1077.509033	339.331909
1076.565796	296.862427
1075.622437	288.859192
1074.678955	280.858826
1073.735229	270.212128
1072.791382	272.812561
1071.847290	333.672302
1070.903076	283.306061
1069.958740	304.433472
1069.014160	309.672668
1068.069458	296.385864
1067.124512	272.520447
1066.179565	320.088226
1065.234253	272.423126
1064.288940	282.952118
1063.343384	298.765228
1062.397583	298.711853
1061.451660	298.658478
1060.505615	293.320099
1059.559448	269.489227
1058.613037	266.799500
1057.666382	277.316254
1056.719727	279.907318
1055.772827	271.936798
1054.825684	234.932526
1053.878418	279.757263
1052.931030	253.319778
1051.983398	290.210358
1051.035645	311.260895
1050.087769	282.194580
1049.139648	311.149597
1048.191406	279.457275
1047.242920	279.407318
1046.294312	274.086456
1045.345581	271.402435
1044.396606	316.140472
1043.447510	292.377625
1042.498291	281.791077
1041.548828	292.273010
1040.599121	294.853333
1039.649414	271.111237
1038.699341	292.116150
1037.749268	278.907837
1036.798950	268.334991
1035.848511	278.808014
1034.897827	307.685822
1033.947021	286.596161
1032.996094	260.256348
1032.044922	268.094879
1031.093506	265.418976
1030.142090	278.508636
1029.190430	294.220581
1028.238525	288.914886
1027.286499	299.367279
1026.334351	288.811401
1025.381958	304.510193
1024.429443	270.335632
1023.476807	299.152802
1022.523926	288.604492
1021.570923	272.813538
1020.617737	280.632874
1019.664368	264.848969
1018.710815	264.801514
1017.757080	251.647415
1016.803223	272.569183
1015.849121	269.899933
1014.894897	272.471466
1013.940491	267.183716
1012.985962	280.230682
1012.031189	308.984039
1011.076294	287.984314
1010.121216	285.315094
1009.165955	277.412628
1008.210510	285.212769
1007.254944	287.777771
1006.299133	279.879059
1005.343201	237.985291
1004.387085	282.393402
1003.430786	266.657043
1002.474365	295.361145
1001.517700	292.694794
1000.560913	276.965027
999.603943	279.527710
998.646790	261.193970
997.689514	255.924133
996.731995	263.711212
995.774353	292.379730
994.816528	302.767487
993.858521	242.692413
992.900330	268.740112
991.942017	260.865875
990.983459	266.035400
990.024780	268.595337
989.065918	258.118103
988.106873	245.037796
987.147705	242.387466
986.188293	255.373154
985.228760	278.775696
984.269043	265.701050
983.309143	250.026627
982.349060	252.585678
981.388794	257.747284
980.428406	270.716187
979.467834	286.282959
978.507019	283.629364
977.546082	241.952209
976.585022	254.914551
975.623718	278.275024
974.662292	275.624756
973.700623	254.777069
972.738831	288.522125
971.776855	257.284271
970.814758	306.606903
969.852417	314.345428
968.889954	316.886292
967.927246	264.890076
966.964417	290.807343
966.001404	311.523254
965.038208	282.916016
964.074890	282.865112
963.111328	285.408844
962.147644	280.169159
961.183777	280.118713
960.219727	274.881836
959.255493	254.090302
958.291077	269.598297
957.326538	266.957947
956.361755	272.092590
955.396851	287.588928
954.431763	240.909500
953.466492	248.635986
952.501038	279.665100
951.535461	261.491547
950.569641	253.678772
949.603699	258.809265
948.637573	271.700745
947.671265	271.651794
946.704773	250.909302
945.738098	243.105408
944.771240	271.504974
943.804260	261.114868
942.837097	258.482971
941.869751	279.111267
940.902222	253.221985
939.934509	242.842606
938.966614	250.547729
937.998535	260.832550
937.030334	232.383133
936.061951	276.227905
935.093323	260.691467
934.124573	296.773376
933.155640	260.597443
932.186584	268.289551
931.217285	255.344940
930.247864	278.507843
929.278198	262.987732
928.308411	252.628906
927.338440	273.202362
926.368286	239.653152
925.397949	280.833099
924.427429	262.750519
923.456787	244.674454
922.485901	265.230743
921.514893	272.906616
920.543701	280.579742
919.572327	270.234436
918.600769	267.612427
917.629028	264.991364
916.657104	262.371246
915.685059	275.182861
914.712769	285.418518
913.740356	300.792206
912.767761	280.174591
911.794983	251.854584
910.822021	259.517517
909.848877	233.780472
908.875549	300.520569
907.902039	264.513031
906.928406	269.600494
905.954590	295.223358
904.980530	241.269379
904.006348	251.490692
903.031982	271.971375
902.057434	269.356903
901.082703	259.048828
900.107849	307.725128
899.132751	282.030365
898.157532	266.598663
897.182068	243.483597
896.206482	279.314850
895.230713	271.578156
894.254761	315.076141
893.278625	284.285553
892.302307	317.522797
891.325806	266.261261
890.349182	253.414383
889.372314	284.079865
888.395325	289.146088
887.418091	276.301971
886.440735	289.041412
885.463196	268.529694
884.485474	294.050690
883.507568	319.562469
882.529480	301.612335
881.551270	281.113129
880.572815	258.066223
879.594238	301.448517
878.615417	301.393921
877.636475	301.339355
876.657349	278.305420
875.677979	291.018982
874.698486	280.756927
873.718811	313.880402
872.739014	301.066467
871.758972	306.113831
870.778748	285.654449
869.798401	293.252777
868.817810	323.794373
867.837097	277.851868
866.856140	310.933807
865.875061	331.262848
864.893799	323.559631
863.912354	338.784485
862.930725	297.974426
861.948914	323.383667
860.966919	328.416748
859.984741	348.720428
859.002441	315.572906
858.019897	312.971191
857.037231	302.738342
856.054321	307.770538
855.071289	302.628510
854.088074	330.542572
853.104614	340.651306
852.121033	376.173462
851.137268	345.610168
850.153320	373.496155
849.169189	350.565399
848.184937	353.041626
847.200439	398.686859
846.215759	355.452393
845.230896	337.618469
844.245911	370.551483
843.260681	403.472504
842.275330	372.954010
841.289795	431.229034
840.304016	385.499451
839.318115	410.786621
838.332031	390.429932
837.345764	359.941406
836.359314	382.685059
835.372681	385.149414
834.385864	385.079437
833.398865	390.075378
832.411743	422.926941
831.424377	349.421021
830.436829	387.331146
829.449158	379.667389
828.461243	366.945099
827.473206	366.878387
826.484924	354.162994
825.496521	376.862091
824.507935	356.563019
823.519104	323.629547
822.530151	386.768097
821.541016	333.621582
820.551697	293.129272
819.562195	343.606293
818.572510	343.543793
817.582642	333.378906
816.592590	325.742828
815.602356	333.257599
814.611938	323.100067
813.621399	335.660065
812.630615	353.262085
811.639648	330.492218
810.648560	330.432037
809.657227	335.415741
808.665771	347.962006
807.674072	332.772614
806.682251	327.670929
805.690186	277.209534
804.697998	314.953461
803.705566	307.338593
802.713013	309.801331
801.720276	304.708405
800.727356	299.617310
799.734253	322.218719
798.740906	319.643127
797.747437	304.486389
796.753784	306.946869
795.759949	337.076935
794.765930	301.804932
793.771729	314.322845
792.777344	314.265533
791.782776	299.126251
790.788025	344.309479
789.793091	306.555450
788.798035	288.913513
787.802734	291.372681
786.807251	248.626160
785.811584	313.864685
784.815796	321.338806
783.819763	268.570160
782.823547	296.126160
781.827148	265.963104
780.830627	283.474976
779.833862	270.882416
778.836975	268.325287
777.839844	283.319855
776.842529	268.227356
775.845093	253.140366
774.847412	285.670654
773.849609	335.727020
772.851563	285.566376
771.853394	290.523254
770.854980	260.421570
769.856445	282.906403
768.857666	300.376709
767.858765	287.808441
766.859680	302.769226
765.860352	287.703339
764.860901	265.138977
763.861206	305.104218
762.861389	282.544891
761.861389	277.493408
760.861145	307.436523
759.860779	262.397858
758.860168	282.338470
757.859436	309.766113
756.858521	304.714203
755.857361	279.686493
754.856079	292.119080
753.854614	287.073120
752.852905	314.474792
751.851074	296.949677
750.848999	261.966492
749.846802	286.863220
748.844421	284.316772
747.841797	291.745422
746.839050	289.198975
745.836121	271.697601
744.832947	284.108826
743.829651	281.565125
742.826111	226.705643
741.822449	251.572327
740.818604	254.016647
739.814514	286.338898
738.810303	241.476456
737.805847	268.811157
736.801270	278.716125
735.796448	281.153168
734.791504	298.515106
733.786316	271.101563
732.781006	295.919098
731.775452	280.947357
730.769775	263.495270
729.763855	278.359100
728.757751	258.428986
727.751526	263.350525
726.745056	288.142120
725.738403	258.287018
724.731628	268.171997
723.724609	275.570709
722.717407	275.520233
721.710083	218.390427
720.702515	255.569214
719.694763	332.427185
718.686829	280.278992
717.678711	324.865662
716.670410	272.737946
715.661987	317.309631
714.653320	317.251465
713.644470	289.934479
712.635437	322.090363
711.626221	314.599823
710.616821	277.391479
709.607178	282.293121
708.597412	247.580124
707.587463	301.992340
706.577332	254.913971
705.567017	257.341644
704.556458	301.826172
703.545776	286.929596
702.534912	272.038483
701.523804	254.680206
700.512573	269.466492
699.501099	264.473602
698.489502	279.252625
697.477661	266.847321
696.465698	271.739044
695.453491	306.267761
694.441101	301.272644
693.428589	316.031311
692.415833	286.350769
691.402893	269.021576
690.389771	259.101624
689.376465	234.382217
688.362976	276.273529
687.349304	276.222778
686.335449	276.172058
685.321411	271.190582
684.307190	276.070557
683.292725	278.484314
682.278137	312.929260
681.263367	278.381958
680.248352	293.109406
679.233215	317.682068
678.217834	275.766266
677.202332	278.177338
676.186584	292.893951
675.170654	273.153351
674.154541	282.944702
673.138306	273.052917
672.121826	297.597534
671.105164	253.280243
670.088318	267.985138
669.071289	263.019562
668.054016	287.547943
667.036621	272.751709
666.019043	282.528595
665.001282	255.457108
663.983276	260.321838
662.965149	272.550995
661.946777	314.235199
660.928223	245.451065
659.909546	262.584290
658.890625	262.535950
657.871521	277.206543
656.852234	255.081192
655.832764	286.913483
654.813110	279.505249
653.793274	313.772675
652.773254	272.049622
651.752991	269.549072
650.732605	281.749390
649.711975	249.853439
648.691223	274.298340
647.670227	274.247803
646.649048	298.679169
645.627747	313.310547
644.606201	274.096222
643.584473	249.577332
642.562561	310.690979
641.540466	291.066223
640.518127	269.003235
639.495667	261.618530
638.473022	320.240265
637.450134	285.963379
636.427063	281.023285
635.403870	298.074097
634.380432	295.576324
633.356812	278.425507
632.333008	310.118591
631.309021	261.232819
630.284851	305.122223
629.260498	285.541718
628.235901	287.929108
627.211182	251.281570
626.186218	278.066162
625.161133	258.505035
624.135803	314.537659
623.110291	294.977020
622.084595	294.922546
621.058716	302.178894
620.032654	287.504242
619.006409	306.939392
617.979919	321.496155
616.953308	301.955780
615.926453	304.334686
614.899414	340.791901
613.872253	282.318298
612.844849	277.399475
611.817261	282.213989
610.789490	313.783447
609.761475	282.109741
608.733337	330.688232
607.705017	294.160889
606.676453	354.872345
605.647705	308.633301
604.618774	269.700500
603.589722	296.372772
602.560425	327.892853
601.530884	286.549683
600.501221	301.064331
599.471375	281.588745
598.441284	300.953003
597.411011	303.323944
596.380615	295.989410
595.349976	329.894379
594.319153	276.477966
593.288147	303.099579
592.256897	298.194824
591.225525	288.444061
590.193970	332.012817
589.162170	285.914337
588.130188	266.480988
587.098022	310.029572
586.065674	288.177277
585.033142	297.808777
584.000427	280.808319
582.967468	317.061035
581.934387	307.322876
580.901062	319.363068
579.867554	302.371155
578.833862	316.826294
577.799988	314.349548
576.765930	287.697449
575.731628	311.815918
574.697205	328.675293
573.662537	309.284149
572.627747	306.811005
571.592712	285.015686
570.557434	304.282379
569.522034	309.054993
568.486450	333.138153
567.450623	323.422028
566.414673	296.817444
565.378479	330.540253
564.342102	371.487335
563.305542	332.829529
562.268799	313.476929
561.231812	347.171600
560.194702	318.181641
559.157349	320.532654
558.119812	342.159363
557.082092	337.277649
556.044189	344.441132
555.006042	363.643097
553.967773	327.458832
552.929260	332.212769
551.890625	351.406281
550.851746	298.399261
549.812683	353.681854
548.773376	346.399567
547.733948	307.853577
546.694275	317.415070
545.654419	326.973022
544.614441	360.565063
543.574158	341.271545
542.533752	331.596680
541.493164	345.949677
540.452332	314.659668
539.411316	331.411987
538.370178	333.751526
537.328735	360.096619
536.287170	364.830139
535.245422	355.163361
534.203430	359.895966
533.161255	328.643921
532.118896	297.403473
531.076355	321.327881
530.033630	350.038452
528.990723	347.576324
527.947571	318.752136
526.904236	345.050934
525.860718	344.986786
524.817017	366.480316
523.773132	340.068817
522.729004	359.160858
521.684692	363.881989
520.640198	399.717041
519.595520	330.243652
518.550659	387.605255
517.505615	377.964417
516.460327	339.626343
515.414856	339.563171
514.369202	341.890839
513.323364	370.512024
512.277283	356.103363
511.231079	346.479034
510.184631	355.970825
509.138000	336.795593
508.091187	396.437317
507.044159	362.935272
505.996948	389.127869
504.949554	360.413300
503.901947	374.664612
502.854126	374.594818
501.806152	350.669983
500.757965	386.380646
499.709564	395.847168
