#Wave		#Intensity
3200.600830	88.406898
3200.007080	50.518227
3199.413086	16.836864
3198.819092	50.502956
3198.224854	37.871494
3197.630615	50.487694
3197.036377	46.273388
3196.442139	46.266392
3195.847656	29.437799
3195.252930	50.457169
3194.658447	50.449543
3194.063721	100.883827
3193.468750	54.637142
3192.873779	71.437767
3192.278809	33.612690
3191.683838	58.813313
3191.088623	29.402208
3190.493164	62.995205
3189.897949	54.587585
3189.302490	37.785690
3188.706787	71.362175
3188.111328	41.971401
3187.515381	62.947575
3186.919678	41.958702
3186.323730	50.342823
3185.727783	37.751408
3185.131592	41.939659
3184.535400	25.159988
3183.939209	41.926968
3183.342773	46.112686
3182.746338	20.957140
3182.149902	41.907936
3181.553223	54.472073
3180.956543	25.137152
3180.359619	41.888912
3179.762695	16.753029
3179.165771	83.752464
3178.568604	54.430859
3177.971436	83.727104
3177.374268	46.042938
3176.776855	41.850880
3176.179443	50.213451
3175.581787	29.286743
3174.984131	54.381432
3174.386475	50.190643
3173.788574	20.909601
3173.190674	71.081879
3172.592773	4.180654
3171.994629	37.620182
3171.396484	71.049583
3170.798340	54.323803
3170.199951	16.712484
3169.601563	75.194786
3169.002930	37.591698
3168.404297	16.704891
3167.805664	41.755898
3167.206787	37.574615
3166.607910	16.697298
3166.008789	33.389538
3165.409912	66.768951
3164.810547	37.551846
3164.211426	75.092308
3163.612061	62.567440
3163.012695	33.364243
3162.413086	25.019390
3161.813477	58.369724
3161.213623	16.674536
3160.614014	58.352032
3160.013916	20.836851
3159.414063	20.833693
3158.813965	49.993282
3158.213867	24.992851
3157.613525	54.142963
3157.013184	33.313694
3156.412598	16.654322
3155.812256	58.281288
3155.211426	37.460857
3154.610840	29.131805
3154.010010	37.449497
3153.409180	58.245937
3152.808105	41.597931
3152.207031	74.864914
3151.605957	33.268250
3151.004639	24.947401
3150.403320	24.943615
3149.801758	41.566383
3149.200195	33.248062
3148.598633	33.243019
3147.996826	29.083227
3147.395020	54.003510
3146.793213	29.074400
3146.191162	33.222843
3145.589111	29.065575
3144.986816	37.364353
3144.384766	33.207718
3143.782227	62.255016
3143.179932	62.245567
3142.577393	45.639820
3141.974609	70.523560
3141.371826	20.739075
3140.769043	29.030294
3140.166260	58.051773
3139.563232	41.459255
3138.960205	37.307667
3138.356934	49.736000
3137.753662	41.440372
3137.150391	20.717039
3136.546875	16.571114
3135.943359	41.421494
3135.339600	24.849121
3134.735840	45.549801
3134.132080	86.945503
3133.528076	20.698164
3132.924072	33.112034
3132.320068	16.553501
3131.715820	28.964224
3131.111572	53.782528
3130.507080	37.228401
3129.902588	16.543442
3129.298096	41.352318
3128.693604	33.076828
3128.088867	41.339752
3127.483887	53.733505
3126.878906	57.858059
3126.273926	74.377625
3125.668945	49.577545
3125.063721	57.831676
3124.458252	49.562473
3123.853027	66.073250
3123.247559	70.192154
3122.641846	57.796513
3122.036133	70.170807
3121.430420	12.381201
3120.824707	57.770153
3120.218750	74.264618
3119.612549	28.876291
3119.006592	70.117470
3118.400391	16.495718
3117.793945	57.726234
3117.187500	24.736052
3116.581055	57.708672
3115.974609	32.971367
3115.367920	37.087147
3114.760986	45.321838
3114.154297	49.434483
3113.547363	65.902611
3112.940186	45.301151
3112.333008	24.705959
3111.725830	37.053299
3111.118408	57.629692
3110.510986	53.505142
3109.903564	37.036385
3109.295898	78.176018
3108.688232	57.594616
3108.080566	65.812401
3107.472656	57.577080
3106.864746	53.456295
3106.256592	45.225361
3105.648438	24.664623
3105.040039	36.991302
3104.431885	45.204708
3103.823486	49.306717
3103.214844	28.757872
3102.606201	24.645849
3101.997559	45.177177
3101.388672	41.063904
3100.779785	57.480713
3100.170898	61.577095
3099.561768	69.776749
3098.952637	28.727224
3098.343262	41.032639
3097.733887	32.821110
3097.124512	32.816109
3096.514893	45.115276
3095.905273	53.309929
3095.295410	20.500694
3094.685791	53.293686
3094.075684	36.890007
3093.465820	40.982647
3092.855713	65.562241
3092.245361	61.455235
3091.635254	53.253086
3091.024658	45.053436
3090.414307	57.331993
3089.803711	69.606812
3089.193115	32.751152
3088.582275	65.492317
3087.971436	61.389687
3087.360596	61.380325
3086.749512	77.736557
3086.138428	32.726192
3085.527100	53.171951
3084.915771	61.342896
3084.304443	36.800125
3083.692871	32.706230
3083.081299	57.227177
3082.469482	53.131416
3081.857910	53.123310
3081.245850	44.943638
3080.634033	36.766457
3080.021973	57.183540
3079.409668	49.006985
3078.797607	53.082798
3078.185059	73.488045
3077.572754	32.656372
3076.960205	69.384201
3076.347656	44.888805
3075.734863	73.443199
3075.122070	20.397776
3074.509033	40.789322
3073.895996	44.861408
3073.282959	44.854561
3072.669922	36.693584
3072.056641	36.687981
3071.443115	20.379101
3070.829834	52.977573
3070.216064	36.671181
3069.602539	32.591629
3068.988770	48.879978
3068.375000	24.436256
3067.760986	32.576698
3067.146973	24.428793
3066.532715	52.920971
3065.918701	61.053329
3065.304199	69.183205
3064.689941	32.551830
3064.075439	81.367142
3063.460693	44.745094
3062.846191	32.536915
3062.231445	16.265972
3061.616455	20.329359
3061.001465	52.848255
3060.386475	28.452404
3059.771240	60.960121
3059.156006	69.077583
3058.540771	48.753193
3057.925293	60.932178
3057.309814	52.799816
3056.694092	-12.182711
3056.078369	20.301414
3055.462646	12.178987
3054.846680	8.118083
3054.230713	32.467369
3053.614502	44.635807
3052.998291	28.400263
3052.382080	40.565601
3051.765625	12.167819
3051.149170	68.940430
3050.532715	52.711094
3049.916016	36.486713
3049.299316	36.481136
3048.682373	24.317038
3048.065430	36.469975
3047.448486	16.206400
3046.831299	60.764702
3046.214111	28.352522
3045.596680	12.149222
3044.979248	64.785942
3044.361816	36.436516
3043.744141	16.191528
3043.126465	28.330841
3042.508545	52.606369
3041.890869	32.368195
3041.272705	60.681080
3040.654785	56.627007
3040.036621	60.662506
3039.418213	80.870964
3038.799805	36.386364
3038.181396	72.761589
3037.562988	32.333534
3036.944336	36.369656
3036.325439	56.566360
3035.706543	52.517864
3035.087646	12.117652
3034.468750	40.385986
3033.849609	40.379803
3033.230469	48.448345
3032.611084	24.220463
3031.991699	64.578011
3031.372070	68.603630
3030.752441	52.453564
3030.132813	44.376987
3029.513184	64.538460
3028.893066	60.495533
3028.273193	60.486267
3027.653076	28.222601
3027.032959	28.218277
3026.412598	44.336212
3025.792480	44.329418
3025.171875	56.410618
3024.551270	60.430687
3023.930664	52.365234
3023.310059	96.659462
3022.689209	56.376045
3022.068115	60.393650
3021.447266	60.384392
3020.826172	72.450165
3020.204834	36.219528
3019.583496	76.451729
3018.962158	60.347378
3018.340576	56.315582
3017.718994	52.285023
3017.097412	76.404861
3016.475586	56.289684
3015.853760	60.301128
3015.231689	52.252964
3014.609619	80.376846
3013.987549	48.218712
3013.365234	60.264145
3012.742920	56.237911
3012.120361	56.229282
3011.497803	52.204899
3010.875244	36.136307
3010.252441	40.145294
3009.629639	44.153049
3009.006836	56.186169
3008.383789	52.164864
3007.760498	52.156860
3007.137451	104.297714
3006.514160	84.227539
3005.890625	48.122635
3005.267090	56.134457
3004.643555	64.143822
3004.019775	52.108856
3003.395996	88.170685
3002.772217	60.107147
3002.148193	64.104446
3001.524170	68.100517
3000.899902	60.079468
3000.275635	80.093658
2999.651367	64.065094
2999.026855	44.037987
2998.402344	112.079483
2997.777588	80.044479
2997.152832	64.025749
2996.528076	80.019897
2995.903076	56.005325
2995.278076	67.996025
2994.653076	31.993214
2994.027832	63.976597
2993.402344	47.975079
2992.777100	47.967709
2992.151367	63.947117
2991.525879	63.937294
2990.900146	75.913872
2990.274414	51.933090
2989.648438	55.919350
2989.022461	47.923504
2988.396240	63.888187
2987.770264	71.863167
2987.143799	75.843903
2986.517578	83.814590
2985.891113	123.707283
2985.264404	67.829048
2984.637695	91.754608
2984.010986	67.808197
2983.384033	75.773987
2982.757080	71.774841
2982.130127	79.737564
2981.502930	103.642891
2980.875732	87.684349
2980.248291	115.566139
2979.620850	107.579514
2978.993408	111.546783
2978.365723	103.563232
2977.738037	63.721416
2977.110107	107.513351
2976.482178	131.384995
2975.854248	107.480278
2975.226074	135.324722
2974.597900	99.488159
2973.969482	131.304169
2973.341309	115.370758
2972.712646	182.973740
2972.083984	139.197723
2971.455322	151.105698
2970.826660	198.792694
2970.197754	166.960159
2969.568604	170.909103
2968.939697	202.674942
2968.310547	190.723526
2967.681152	214.530945
2967.051758	222.442291
2966.422363	246.237488
2965.792725	262.083405
2965.163086	277.924469
2964.533203	277.881683
2963.903564	325.468414
2963.273438	277.796112
2962.643311	361.079346
2962.013184	357.056427
2961.383057	273.701111
2960.752686	408.505402
2960.122314	368.787872
2959.491699	376.660767
2958.861084	360.745789
2958.230225	372.581116
2957.599609	392.338806
2956.968506	451.714478
2956.337646	336.752777
2955.706299	384.235138
2955.075195	400.018250
2954.443848	380.156769
2953.812500	419.691742
2953.180908	455.255798
2952.549316	451.227509
2951.917725	490.733215
2951.285889	490.657593
2950.653809	526.188721
2950.021973	545.886108
2949.389893	537.891785
2948.757568	486.400665
2948.125244	581.218506
2947.492920	525.783264
2946.860352	498.033661
2946.227783	497.956879
2945.595215	391.191498
2944.962402	414.836090
2944.329590	375.270020
2943.696533	383.111359
2943.063477	387.001251
2942.430420	296.128754
2941.797119	327.665283
2941.163574	268.407257
2940.530273	248.633072
2939.896729	315.675812
2939.262939	284.064423
2938.629150	303.744232
2937.995361	280.032654
2937.361328	276.045929
2936.727295	208.973953
2936.093262	283.845337
2935.458984	268.034790
2934.824707	319.227448
2934.190186	323.118652
2933.555664	291.549866
2932.921143	307.261902
2932.286377	338.723633
2931.651367	381.989777
2931.016602	354.368805
2930.381592	448.797852
2929.746338	377.876678
2929.111084	472.272919
2928.475830	507.615021
2927.840332	507.536621
2927.204834	511.392059
2926.569336	542.778503
2925.933594	593.818054
2925.297607	633.046021
2924.661865	613.291443
2924.025879	558.166260
2923.389648	672.054138
2922.753418	652.302612
2922.117188	667.917603
2921.480713	644.244446
2920.844238	738.410034
2920.207764	663.680969
2919.571045	710.696411
2918.934082	639.920532
2918.297363	671.223938
2917.660156	663.270813
2917.023193	643.547974
2916.385986	615.984253
2915.748779	572.737549
2915.111328	647.171875
2914.473877	619.620300
2913.836182	599.919312
2913.198486	529.258728
2912.560791	658.531250
2911.922852	583.964233
2911.284912	630.897339
2910.646729	619.045776
2910.008545	622.867432
2909.370361	685.439880
2908.731934	751.909180
2908.093506	716.552612
2907.455078	790.826477
2906.816406	853.334167
2906.177490	907.994995
2905.538574	927.420349
2904.899658	974.227661
2904.260498	977.988892
2903.621338	1028.685181
2902.982178	1106.740845
2902.342773	1063.558105
2901.703369	1110.307983
2901.063721	1086.682617
2900.424072	961.447998
2899.784424	898.775696
2899.144531	929.893494
2898.504639	996.160278
2897.864502	902.264343
2897.224365	913.840576
2896.583984	901.985046
2895.943848	917.461792
2895.303223	913.416260
2894.662842	796.188354
2894.021973	796.065063
2893.381348	850.565247
2892.740479	889.444275
2892.099609	826.899048
2891.458496	807.271729
2890.817383	904.628174
2890.176025	838.210938
2889.534668	888.755798
2888.893311	986.054321
2888.251709	1013.179504
2887.610107	1001.333801
2886.968262	1051.822021
2886.326416	1137.349731
2885.684570	1113.807007
2885.042480	1175.935669
2884.400391	1167.967041
2883.758057	1311.812988
2883.115723	1245.445435
2882.473389	1268.600830
2881.830811	1326.766479
2881.188232	1338.231445
2880.545410	1345.803223
2879.902588	1384.484619
2879.259766	1329.832520
2878.616699	1267.421631
2877.973633	1240.014771
2877.330322	1169.863892
2876.687012	1200.770386
2876.043457	1150.074219
2875.399902	1138.241577
2874.756348	1087.570679
2874.112549	1013.614014
2873.468750	943.563293
2872.824707	873.534180
2872.180664	970.443054
2871.536621	877.144409
2870.892334	892.530640
2870.248047	900.152161
2869.603760	942.685486
2868.958984	930.902954
2868.314453	891.976929
2867.669678	969.389709
2867.024902	1031.270630
2866.379883	1019.481567
2865.734863	1007.696106
2865.089844	1038.540894
2864.444580	1022.881592
2863.799316	1065.336304
2863.153809	1018.690735
2862.508301	960.441406
2861.862549	917.698730
2861.216797	805.281433
2860.571045	712.253784
2859.925049	723.754211
2859.279053	642.377258
2858.632813	595.847839
2857.986572	518.384521
2857.340332	475.756653
2856.693848	429.274719
2856.047363	417.607819
2855.400635	363.417023
2854.753906	359.495056
2854.107178	332.384644
2853.460205	324.604340
2852.813232	258.870392
2852.166016	316.777252
2851.518799	320.590576
2850.871338	297.369141
2850.223877	281.877594
2849.576416	328.162628
2848.928711	293.370422
2848.281006	355.077423
2847.633301	374.316925
2846.985352	374.258759
2846.337158	397.347015
2845.688965	362.571014
2845.040771	401.080048
2844.392578	428.009308
2843.743896	466.496155
2843.095459	508.825806
2842.446777	585.829529
2841.798096	620.420349
2841.149170	658.853271
2840.500244	731.945374
2839.851074	797.311279
2839.202148	827.996460
2838.552734	850.970947
2837.903320	800.789307
2837.253906	846.856934
2836.604492	892.910278
2835.954834	827.352783
2835.304932	807.986328
2834.655029	788.625854
2834.005127	750.039612
2833.354980	646.087402
2832.704834	542.167603
2832.054688	522.860413
2831.404297	492.027344
2830.753906	434.300323
2830.103271	445.761017
2829.452637	341.953094
2828.801758	315.008881
2828.150879	291.914001
2827.500000	272.666687
2826.848877	238.066238
2826.197754	234.190002
2825.546387	222.637802
2824.895020	234.117096
2824.243408	230.243256
2823.591797	199.513092
2822.940186	191.809631
2822.288330	180.272980
2821.636475	138.059937
2820.984619	164.879242
2820.332520	149.518341
2819.680176	141.828644
2819.028076	130.308731
2818.375488	172.440567
2817.723145	126.436722
2817.070557	118.755386
2816.417725	137.888000
2815.764893	134.036896
2815.112061	122.528923
2814.458984	107.196106
2813.805908	118.662910
2813.152832	114.817177
2812.499512	110.972641
2811.845947	137.737671
2811.192383	122.414406
2810.538818	91.796501
2809.885010	80.309418
2809.231201	87.944221
2808.577393	91.753578
2807.923340	103.206688
2807.269287	99.368721
2806.614990	72.604286
2805.960693	110.799789
2805.306152	122.242767
2804.651611	99.306763
2803.997070	76.377907
2803.342285	87.820892
2802.687500	61.083271
2802.032471	72.525070
2801.377441	91.596329
2800.722412	114.477547
2800.067139	91.567757
2799.411621	106.812378
2798.756348	110.609848
2798.100586	95.338448
2797.445068	83.884743
2796.789307	110.558090
2796.133301	68.611557
2795.477539	80.034325
2794.821289	95.264084
2794.165283	72.389404
2793.509033	95.234352
2792.852539	95.219490
2792.196045	76.163704
2791.539551	95.189766
2790.882813	83.753922
2790.226074	83.740845
2789.569092	68.504539
2788.912109	45.662563
2788.255127	49.460056
2787.597900	95.100639
2786.940430	106.496086
2786.283203	95.070938
2785.625488	91.253853
2784.968018	95.041252
2784.310303	114.031685
2783.652588	102.612488
2782.994629	106.396332
2782.336426	102.580437
2781.678467	110.161774
2781.020264	98.750298
2780.361816	91.139885
2779.703369	60.750427
2779.044922	75.926170
2778.386230	87.301453
2777.727539	68.312202
2777.068604	72.096054
2776.409668	102.436272
2775.750732	75.866867
2775.091553	91.026009
2774.432373	83.427467
2773.772949	75.831291
2773.113525	117.520134
2772.453857	90.969109
2771.794189	64.426376
2771.134521	79.573082
2770.474609	83.349243
2769.814697	83.336212
2769.154541	98.472847
2768.494385	53.015549
2767.833984	87.083351
2767.173584	56.784607
2766.513184	94.626213
2765.852539	98.395866
2765.191895	68.109558
2764.531006	102.148361
2763.870117	64.305573
2763.209229	83.205956
2762.548096	71.848450
2761.886719	56.713585
2761.225586	71.825966
2760.563965	75.594452
2759.902588	90.699142
2759.240967	102.020569
2758.579102	83.114861
2757.917236	86.879211
2757.255371	86.865616
2756.593262	128.389938
2755.931152	79.287254
2755.269043	83.049835
2754.606689	147.201660
2753.944092	120.761940
2753.281494	162.248459
2752.618896	139.587280
2751.956055	86.756882
2751.293213	132.000671
2750.630371	105.584000
2749.967285	120.648529
2749.303955	79.163193
2748.640625	120.610741
2747.977295	131.897339
2747.313721	143.180389
2746.650146	135.623337
2745.986572	128.068634
2745.322754	135.580841
2744.658691	116.731873
2743.994873	124.243492
2743.330566	169.396408
2742.666504	135.495880
2742.002197	154.290573
2741.337646	109.115257
2740.673096	173.052246
2740.008545	120.365303
2739.343750	150.433044
2738.678955	142.888992
2738.013916	142.866592
2737.348877	157.880432
2736.683594	108.995590
2736.018311	127.767899
2735.353027	131.505157
2734.687500	154.024734
2734.021973	146.488358
2733.356201	146.465393
2732.690430	131.422684
2732.024658	165.191177
2731.358643	153.904007
2730.692383	157.633026
2730.026367	161.360886
2729.359863	161.335571
2728.693604	135.050461
2728.027100	142.530899
2727.360352	183.761002
2726.693604	176.232895
2726.026855	206.197632
2725.359863	168.680679
2724.692871	243.611633
2724.025635	243.573410
2723.358398	213.561615
2722.691162	224.766418
2722.023682	213.494583
2721.355957	239.675598
2720.688477	198.450195
2720.020508	232.112839
2719.352783	247.049072
2718.684814	258.238037
2718.016602	246.971512
2717.348389	239.449921
2716.680176	213.226593
2716.011719	187.011505
2715.343262	231.857849
2714.674561	209.387100
2714.005859	179.446472
2713.337158	149.515244
2712.668213	183.127396
2711.999023	164.415100
2711.329834	183.069870
2710.660645	164.363449
2709.991455	179.277405
2709.321777	197.921036
2708.652344	164.285995
2707.982666	160.526993
2707.312988	175.432159
2706.643066	97.032326
2705.972900	164.182755
2705.302979	164.156937
2704.632813	167.861389
2703.962402	149.186676
2703.291992	149.163223
2702.621582	156.596771
2701.950928	175.211685
2701.280273	123.001633
2700.609375	126.709030
2699.938477	186.307510
2699.267334	130.394760
2698.596191	93.124466
2697.925049	141.526932
2697.253662	104.266594
2696.582031	85.634094
2695.910645	81.897987
2695.239014	81.885109
2694.567139	130.251266
2693.895264	107.905502
2693.223145	122.769699
2692.551270	81.833595
2691.878906	119.011955
2691.206543	74.370766
2690.534180	100.384735
2689.861816	100.368942
2689.189209	118.937065
2688.516357	66.891571
2687.843506	100.321564
2687.170654	130.026001
2686.497559	104.004425
2685.824463	122.557350
2685.151123	137.391159
2684.477783	100.242630
2683.804199	89.090530
2683.130615	107.634109
2682.457031	126.171844
2681.783203	59.365639
2681.109375	118.712578
2680.435303	96.438782
2679.761230	92.714996
2679.086914	111.240471
2678.412598	126.052681
2677.738281	100.084892
2677.063721	148.250549
2676.389160	129.698807
2675.714355	133.383469
2675.039551	74.090248
2674.364502	107.413940
2673.689453	144.430466
2673.014404	111.082855
2672.339111	118.469704
2671.663574	99.943062
2670.988037	92.525291
2670.312500	88.810280
2669.636719	133.194427
2668.960938	73.985237
2668.285156	85.069611
2667.609131	103.546684
2666.932861	85.042793
2666.256592	99.817108
2665.580322	110.890411
2664.903809	147.830566
2664.227295	129.331345
2663.550781	118.227158
2662.874023	107.126465
2662.197021	118.189873
2661.520020	118.171234
2660.843018	114.460327
2660.165771	103.367218
2659.488525	95.968704
2658.811035	95.953568
2658.133545	154.977463
2657.455811	110.680717
2656.778076	121.729584
2656.100342	143.839539
2655.422363	136.441620
2654.744385	151.168213
2654.066162	110.593430
2653.387939	151.120499
2652.709473	125.299660
2652.031006	95.802261
2651.352539	103.155380
2650.673828	154.708649
2649.994873	106.805779
2649.316162	143.612686
2648.636963	114.135651
2647.958008	136.204910
2647.278809	106.738342
2646.599365	128.801804
2645.919922	121.422523
2645.240479	88.293343
2644.560791	106.670937
2643.880859	125.042732
2643.201172	95.605812
2642.520996	154.415756
2641.841064	143.363419
2641.160889	80.858894
2640.480469	106.569885
2639.800049	117.575775
2639.119629	124.904526
2638.438965	88.153969
2637.758301	110.175049
2637.077393	121.173409
2636.396484	73.426819
2635.715332	121.135109
2635.034180	80.743980
2634.353027	88.070419
2633.671631	88.056496
2632.989990	102.716339
2632.308350	95.364380
2631.626709	106.351151
2630.944824	95.334229
2630.262939	109.983643
2629.581055	106.300713
2628.898926	98.953979
2628.216553	139.246536
2627.534180	95.258881
2626.851807	95.243820
2626.169189	87.903465
2625.486572	73.241302
2624.803711	109.844574
2624.120850	117.149017
2623.437988	87.847862
2622.754883	120.771698
2622.071533	109.775085
2621.388184	80.488991
2620.704834	128.030411
2620.021240	95.093254
2619.337646	69.480225
2618.653809	87.750610
2617.969971	124.293694
2617.286133	102.343307
2616.602051	113.290733
2615.917725	87.695068
2615.233398	102.294716
2614.549072	124.195351
2613.864502	135.132370
2613.179932	113.201088
2612.495117	124.136375
2611.810303	102.213768
2611.125488	69.348358
2610.440430	62.038708
2609.755127	91.218948
2609.069824	98.500862
2608.384521	131.313675
2607.698975	87.528587
2607.013428	98.454063
2606.327637	113.021942
2605.641846	80.196411
2604.956055	109.341423
2604.270020	91.103416
2603.583740	87.445419
2602.897461	116.575424
2602.211182	76.490501
2601.524658	76.478378
2600.838135	94.672508
2600.151367	76.454140
2599.464600	69.161827
2598.777832	83.708946
2598.090820	80.056732
2597.403564	94.597504
2596.716309	87.306931
2596.029053	105.479149
2595.341553	138.192154
2594.654053	105.445709
2593.966309	69.074165
2593.278564	105.412270
2592.590820	116.298538
2591.902832	87.210075
2591.214600	90.829422
2590.526367	83.549812
2589.838135	72.640488
2589.149658	94.417656
2588.461182	134.342270
2587.772461	127.060364
2587.083740	108.891609
2586.394775	97.986900
2585.705811	79.828506
2585.016846	90.699821
2584.327637	94.312843
2583.638184	83.417351
2582.948975	119.666771
2582.259277	72.513809
2581.569824	108.753448
2580.879883	86.988945
2580.190186	112.342888
2579.500244	86.961334
2578.810059	76.079086
2578.119873	108.667152
2577.429688	79.676598
2576.739258	108.632652
2576.048584	101.374374
2575.358154	79.638649
2574.667236	119.438995
2573.976563	79.613350
2573.285645	86.837135
2572.594482	112.146820
2571.903320	86.809555
2571.212158	86.795761
2570.520752	130.172958
2569.829102	101.229553
2569.137451	97.598701
2568.445801	115.654160
2567.753906	101.181313
2567.062012	90.326103
2566.370117	108.374100
2565.677979	111.968773
2564.985596	122.784943
2564.293213	79.436455
2563.600830	104.695045
2562.908203	108.288002
2562.215332	93.834686
2561.522705	97.428215
2560.829590	108.236366
2560.136719	75.753410
2559.443604	93.775024
2558.750244	100.972427
2558.056885	93.745201
2557.363525	104.545334
2556.669922	118.946457
2555.976074	97.304352
2555.282227	72.065834
2554.588379	75.657089
2553.894287	68.440765
2553.200195	100.844025
2552.505859	72.019989
2551.811523	111.613228
2551.117188	165.593277
2550.422607	93.581306
2549.727783	125.954788
2549.032959	71.962715
2548.338135	79.146385
2547.643066	100.715736
2546.947998	53.946270
2546.252686	79.108604
2545.557373	53.929100
2544.861816	79.083420
2544.166260	132.982758
2543.470703	93.432472
2542.774902	79.045654
2542.078857	86.217896
2541.382813	111.347054
2540.686768	107.738052
2539.990479	75.404625
2539.294189	86.162994
2538.597656	118.455246
2537.901123	68.190643
2537.204346	71.768188
2536.507568	93.283791
2535.810791	93.268929
2535.113770	89.667374
2534.416504	78.894722
2533.719238	114.737671
2533.021973	103.964447
2532.324463	89.610245
2531.626953	93.179802
2530.929199	71.665352
2530.231445	114.646286
2529.533447	111.045891
2528.835449	89.538864
2528.137451	114.591476
2527.439209	93.090729
2526.740723	100.235573
2526.042236	121.695229
2525.343750	96.624916
2524.645020	125.234550
2523.946289	82.283867
2523.247314	110.886665
2522.548340	103.716141
2521.849121	71.516968
2521.149902	103.683067
2520.450684	117.965363
2519.751221	125.094818
2519.051514	146.516266
2518.351807	103.616928
2517.652100	132.179825
2516.952148	96.440155
2516.252197	110.709923
2515.552002	89.267952
2514.851807	103.534302
2514.151367	146.352722
2513.450928	96.363243
2512.750244	99.916306
2512.049561	92.764618
2511.348877	89.182510
2510.647949	78.468086
2509.946777	114.117172
2509.245605	82.008629
2508.544434	67.735443
2507.843018	103.369171
2507.141602	99.788780
2506.439941	71.266319
2505.738281	81.943176
2505.036377	92.616631
2504.334473	81.917007
2503.632568	131.758499
2502.930420	124.616508
2502.228027	96.117378
2501.525635	81.864693
2500.823242	128.115570
2500.120605	88.954933
2499.417969	92.498352
2498.715088	85.369453
2498.012207	113.807747
2497.309082	117.345490
2496.605957	127.992805
2495.902588	110.198410
2495.199219	99.518143
2494.495605	145.699707
2493.791992	124.357918
2493.088379	60.392761
2492.384521	81.694794
2491.680664	102.990013
2490.976563	142.032486
2490.272461	85.205864
2489.568115	138.437393
2488.863770	99.375061
2488.159180	88.713547
2487.454590	70.959488
2486.749756	88.685173
2486.044922	117.045708
2485.339844	95.749352
2484.634766	88.642624
2483.929688	81.538170
2483.224365	60.257706
2482.519043	70.880074
2481.813477	120.476852
2481.107666	102.743233
2480.402100	113.353699
2479.696045	95.626877
2478.990234	123.940933
2478.284180	88.515076
2477.577881	134.521378
2476.871582	106.184090
2476.165039	109.706001
2475.458496	84.920082
2474.751953	102.595345
2474.045166	95.504509
2473.338379	70.732758
2472.631348	70.721436
2471.924072	88.387634
2471.217041	74.233727
2470.509521	91.893707
2469.802246	102.480415
2469.094482	84.797798
2468.386963	102.447594
2467.679199	98.899078
2466.971191	116.540955
2466.263184	81.212502
2465.554932	105.912384
2464.846680	102.365570
2464.138428	81.173477
2463.429932	84.689194
2462.721436	77.619324
2462.012695	88.189644
2461.303955	84.648491
2460.594971	102.267197
2459.885986	84.621361
2459.176758	95.183777
2458.467529	77.544716
2457.758057	95.153267
2457.048584	119.803421
2456.338867	91.599693
2455.629150	88.062508
2454.919434	102.136131
2454.209473	102.119759
2453.499512	91.540962
2452.789307	98.566772
2452.078857	87.991936
2451.368408	105.573387
2450.657959	109.075005
2449.947266	87.949608
2449.236572	80.900658
2448.525879	112.539383
2447.814697	98.456161
2447.103760	161.723465
2446.392578	126.545883
2445.681152	112.467186
2444.969727	98.392998
2444.258301	108.917625
2443.546631	84.309792
2442.834717	84.296257
2442.122803	63.212048
2441.410889	133.426239
2440.698730	112.340904
2439.986572	101.792603
2439.274170	98.266739
2438.561768	115.795776
2437.849121	147.352783
2437.136475	91.203743
2436.423584	101.710922
2435.710693	105.201302
2434.997803	94.665970
2434.284424	119.189850
2433.571289	119.170715
2432.857910	112.142654
2432.144287	133.148010
2431.430908	133.126633
2430.717041	119.094170
2430.003174	98.061790
2429.289307	98.046043
2428.575195	94.529205
2427.861084	101.515060
2427.146729	90.998878
2426.432373	87.484863
2425.717773	125.957954
2425.003174	115.442902
2424.288330	101.433517
2423.573486	76.937202
2422.858643	94.407753
2422.143555	132.848816
2421.428223	115.350159
2420.712891	104.846924
2419.997559	111.818733
2419.281982	97.825661
2418.566162	115.275993
2417.850586	143.198669
2417.134521	122.223106
2416.418457	125.694977
2415.702393	115.201866
2414.986084	62.827274
2414.269775	83.756226
2413.553223	94.210594
2412.836670	104.661606
2412.120117	80.227654
2411.403076	104.627930
2410.686279	62.766659
2409.969238	118.540169
2409.251953	122.007011
2408.534668	128.958084
2407.817383	97.574196
2407.099854	104.526962
2406.382080	107.993805
2405.664307	114.942650
2404.946533	125.371796
2404.228516	69.639786
2403.510498	128.812866
2402.792236	97.464317
2402.073975	139.212311
2401.355469	100.912682
2400.636963	107.854805
2399.918213	125.230576
2399.199463	90.429741
2398.480469	93.892685
2397.761475	79.969772
2397.042480	93.862442
2396.323242	83.419846
2395.603760	100.782738
2394.884277	111.190628
2394.164795	118.121010
2393.445068	111.154808
2392.725098	118.082954
2392.005127	90.284180
2391.285156	90.269630
2390.564941	118.025879
2389.844727	111.065277
2389.124268	114.517609
2388.403809	100.620468
2387.683105	86.727806
2386.962402	97.119484
2386.241455	97.103828
2385.520508	83.218437
2384.799316	121.340652
2384.078125	135.186356
2383.356689	72.780914
2382.635254	131.677567
2381.913818	103.939209
2381.192139	117.778770
2380.470215	117.759781
2379.748291	117.740784
2379.026367	107.334579
2378.304199	103.855415
2377.581787	117.683823
2376.859375	79.596802
2376.136963	69.203445
2375.414307	124.546104
2374.691650	103.771675
2373.968750	100.296432
2373.245850	131.401703
2372.522705	107.178825
2371.799316	86.420586
2371.076172	89.862907
2370.352783	86.392693
2369.629150	127.840553
2368.905518	117.456139
2368.181641	158.885590
2367.457764	93.243881
2366.733643	93.228828
2366.009521	131.189758
2365.285400	107.005943
2364.561035	86.281181
2363.836426	124.224831
2363.111816	100.053848
2362.387207	120.735138
2361.662354	148.307785
2360.937256	120.696136
2360.212158	110.332932
2359.487061	110.315109
2358.761719	120.637657
2358.036377	127.510635
2357.310791	103.370300
2356.584961	89.573112
2355.859375	89.558640
2355.133301	103.320198
2354.407471	127.407646
2353.681152	113.615486
2352.955078	106.712448
2352.228516	123.904099
2351.502197	130.766525
2350.775635	106.660706
2350.048828	147.924805
2349.322021	141.021774
2348.594971	116.925980
2347.867920	92.837975
2347.140869	92.822960
2346.413330	130.618591
2345.686035	103.103271
2344.958496	127.140137
2344.230713	133.990906
2343.502930	109.923470
2342.775146	123.643898
2342.047119	130.491898
2341.319092	99.569809
2340.590820	113.285240
2339.862305	92.672928
2339.133789	72.067284
2338.405273	92.642944
2337.676514	126.934601
2336.947754	85.752739
2336.218750	113.175301
2335.489746	120.014984
2334.760498	133.709335
2334.031250	106.264572
2333.301758	119.956711
2332.572266	113.083733
2331.842529	116.491653
2331.112793	119.898460
2330.382813	133.579514
2329.652832	113.010513
2328.922607	116.416222
2328.192383	102.703560
2327.462158	133.493011
2326.731689	106.092644
2326.000977	112.919037
2325.270264	136.849380
2324.539307	126.565178
2323.808350	160.745941
2323.077393	112.845886
2322.346191	88.894470
2321.614746	119.646248
2320.883301	126.462685
2320.151855	116.190117
2319.420166	133.255310
2318.688232	146.898712
2317.956299	88.808075
2317.224365	143.435944
2316.492188	129.754349
2315.760010	150.217529
2315.027588	116.058357
2314.295166	116.039543
2313.562500	160.381592
2312.829590	129.649200
2312.096924	129.628174
2311.363770	156.892883
2310.630615	112.535332
2309.897461	105.697868
2309.164063	112.498833
2308.430664	92.029572
2307.697021	132.910049
2306.963379	129.481094
2306.229492	129.460083
2305.495605	95.376167
2304.761719	98.766426
2304.027344	112.371147
2303.293213	153.208527
2302.558838	88.506119
2301.824219	136.141159
2301.089600	108.895248
2300.354736	129.292130
2299.619873	149.682373
2298.885010	119.046196
2298.149658	112.225334
2297.414551	119.007545
2296.679199	118.988228
2295.943604	108.771576
2295.208008	118.949593
2294.472412	108.736252
2293.736572	146.090622
2293.000488	163.051422
2292.264404	125.665054
2291.528320	149.415253
2290.791992	145.995743
2290.055420	118.814438
2289.318848	118.795135
2288.582275	128.956619
2287.845459	101.791321
2287.108398	105.167274
2286.371582	118.717957
2285.634277	115.307274
2284.896973	111.897697
2284.159668	88.147499
2283.422119	125.420280
2282.684570	125.399895
2281.946777	145.711334
2281.208740	138.911469
2280.470703	125.338760
2279.732666	125.318382
2278.994385	135.457306
2278.256104	135.435287
2277.517578	111.715942
2276.779053	121.852119
2276.040283	115.063843
2275.301514	121.812492
2274.562500	125.175812
2273.823486	118.390297
2273.084229	94.696831
2272.344971	142.022141
2271.605469	162.284622
2270.865967	141.975937
2270.126221	135.193192
2269.386475	145.309021
2268.646484	135.149200
2267.906494	121.614487
2267.166260	148.615738
2266.426025	135.083237
2265.685547	121.555122
2264.945068	141.791229
2264.204346	135.017288
2263.463623	97.871597
2262.722656	168.716660
2261.981689	145.072708
2261.240723	141.675858
2260.499268	121.416679
2259.758057	104.536232
2259.016602	141.606674
2258.274902	117.986343
2257.533203	124.708107
2256.791260	134.797623
2256.049316	131.406265
2255.307129	121.278343
2254.564941	124.626877
2253.822754	127.974327
2253.080322	154.891052
2252.337646	154.865814
2251.594971	154.840591
2250.852051	127.890945
2250.109131	127.870110
2249.366211	151.400452
2248.623047	121.100624
2247.879639	127.807602
2247.136230	137.875198
2246.392578	158.026306
2245.648926	87.404556
2244.905273	110.918465
2244.161377	141.145935
2243.417236	144.483002
2242.673096	131.021362
2241.928955	131.000000
2241.184570	117.544930
2240.439941	130.957275
2239.695313	130.935913
2238.950439	127.557777
2238.205566	137.605682
2237.460693	100.670662
2236.715576	117.429947
2235.970215	130.829163
2235.224854	117.391640
2234.479492	114.018990
2233.733887	117.353340
2232.988037	113.981781
2232.242188	124.018761
2231.496338	90.485405
2230.750244	90.470642
2230.003906	93.806091
2229.257568	103.839798
2228.511230	123.917595
2227.764648	133.943100
2227.017822	154.009415
2226.270996	137.246857
2225.523926	157.306076
2224.776855	127.162865
2224.029785	127.142105
2223.282471	160.574326
2222.534912	127.100586
2221.787354	130.424042
2221.039795	160.495667
2220.291992	163.812576
2219.543945	133.702713
2218.795898	103.602669
2218.047852	143.683456
2217.299561	110.250687
2216.551025	123.594208
2215.802490	146.952881
2215.053955	170.303925
2214.305176	133.549881
2213.556152	163.571854
2212.807129	113.480293
2212.058105	123.473076
2211.308838	96.760376
2210.559326	116.760681
2209.809814	150.096329
2209.060303	166.746445
2208.310547	120.037811
2207.560547	106.682831
2206.810547	129.998444
2206.060303	143.308182
2205.310059	126.623726
2204.559814	119.939705
2203.809326	99.933411
2203.058594	136.553314
2202.307861	159.841156
2201.557129	113.202293
2200.806152	136.486328
2200.054932	123.150436
2199.303711	103.163216
2198.552246	119.782837
2197.800781	96.475945
2197.049316	136.374710
2196.297607	89.793037
2195.545654	103.078842
2194.793701	139.632339
2194.041504	149.581604
2193.289307	136.263153
2192.537109	106.334320
2191.784668	142.863342
2191.031982	172.736694
2190.279297	136.173950
2189.526367	146.113968
2188.773438	119.528214
2188.020508	109.549591
2187.267090	112.850792
2186.513916	122.788101
2185.760498	116.131882
2185.006836	152.605484
2184.253174	132.678680
2183.499268	145.922638
2182.745361	142.582855
2181.991211	139.244156
2181.237061	129.276962
2180.482666	135.884293
2179.728271	135.862030
2178.973877	142.466095
2178.218994	172.256348
2177.464355	145.731476
2176.709229	142.396057
2175.954346	178.793655
2175.198975	142.349380
2174.443848	122.466599
2173.688232	145.612091
2172.932861	122.426453
2172.177002	112.481537
2171.421387	142.232742
2170.665283	138.902222
2169.909424	168.639328
2169.153076	115.713890
2168.396729	109.083778
2167.640381	109.065887
2166.883789	138.788361
2166.127197	118.941940
2165.370361	168.473434
2164.613525	145.325790
2163.856445	138.697311
2163.099365	115.562134
2162.342041	148.555496
2161.584473	125.426285
2160.826904	122.105553
2160.069336	138.583557
2159.311523	141.859879
2158.553711	138.538071
2157.795654	118.727425
2157.037354	138.492599
2156.279053	135.172958
2155.520752	138.447128
2154.762207	154.903488
2154.003662	204.307236
2153.244873	158.147369
2152.485840	115.296852
2151.726807	138.333511
2150.967773	141.603897
2150.208252	154.750931
2149.448975	121.805199
2148.689453	121.785187
2147.929688	144.801834
2147.169922	138.197235
2146.410156	177.652969
2145.650146	167.755798
2144.889893	154.573074
2144.129639	177.565414
2143.369141	121.645203
2142.608643	144.635391
2141.847900	161.044754
2141.087158	167.590454
2140.326416	128.136353
2139.565186	141.255310
2138.804199	154.369965
2138.042725	154.344589
2137.281494	157.602600
2136.519775	131.313904
2135.758301	114.880775
2134.996338	170.651947
2134.234619	134.530365
2133.472412	154.192383
2132.710449	164.007462
2131.947998	131.184387
2131.185547	157.395386
2130.423096	127.862709
2129.660400	160.621597
2128.897705	137.653000
2128.134766	160.568741
2127.371826	170.371445
2126.608643	170.343414
2125.845215	173.590683
2125.081787	180.111633
2124.318359	134.242935
2123.554688	150.589249
2122.790771	157.110733
2122.026855	124.358864
2121.262939	173.419327
2120.498779	157.033157
2119.734375	163.549286
2118.969971	179.874588
2118.205322	163.495438
2117.440674	143.852295
2116.676025	160.172760
2115.911133	176.487854
2115.145996	202.600830
2114.380859	166.628067
2113.615479	189.467377
2112.850098	150.242477
2112.084473	186.139359
2111.318848	166.518311
2110.552979	189.342560
2109.787109	156.671478
2109.020996	159.909119
2108.254883	185.986069
2107.488525	192.480179
2106.722168	176.139267
2105.955566	130.452026
2105.188965	182.602737
2104.422119	172.791962
2103.655029	202.100677
2102.887939	166.216690
2102.120850	205.292664
2101.353516	169.419968
2100.585938	185.679733
2099.818359	140.051086
2099.050781	136.771530
2098.282959	146.516754
2097.514893	172.535721
2096.746826	162.742706
2095.978760	133.427002
2095.210449	172.450363
2094.441895	159.408936
2093.673340	175.646179
2092.904541	159.356354
2092.135742	191.846390
2091.366699	204.819138
2090.597656	146.275238
2089.828369	201.501511
2089.059082	181.971329
2088.289551	191.688156
2087.520020	149.427124
2086.750244	165.641846
2085.980469	178.603882
2085.210449	155.846741
2084.440186	159.067291
2083.670166	142.812347
2082.899658	149.279175
2082.129150	168.722504
2081.358643	181.671158
2080.587891	139.474457
2079.816895	145.937531
2079.045898	145.913437
2078.274902	162.099258
2077.503662	197.728424
2076.732178	142.600220
2075.960693	220.345764
2075.188965	158.752335
2074.417236	165.204727
2073.645264	187.848831
2072.873291	174.864838
2072.101074	161.885132
2071.328857	207.178726
2070.556396	178.014801
2069.783936	161.804886
2069.011230	174.720398
2068.238525	171.456482
2067.465576	152.021179
2066.692627	200.505432
2065.919434	158.437775
2065.145996	197.206238
2064.372559	168.082443
2063.599121	180.981934
2062.825439	203.570999
2062.051514	174.460571
2061.277588	209.964111
2060.503662	174.402863
2059.729248	180.832321
2058.955078	187.259628
2058.180664	158.175934
2057.406006	200.107864
2056.631348	261.388000
2055.856445	235.532913
2055.081543	229.042053
2054.306396	245.131210
2053.531250	187.042862
2052.755859	193.460587
2051.980225	196.652374
2051.204590	157.940521
2050.428955	199.810028
2049.653076	190.110321
2048.877197	167.527115
2048.101074	164.278244
2047.324707	199.677734
2046.548340	170.664001
2045.771851	202.831161
2044.995239	196.359543
2044.218506	180.234650
2043.441528	199.512451
2042.664551	183.392365
2041.887329	209.097000
2041.110107	218.711395
2040.332642	189.732864
2039.555176	157.548645
2038.777466	189.669998
2037.999634	192.852783
2037.221802	189.607147
2036.443726	215.280914
2035.665527	221.670471
2034.887207	186.300812
2034.108765	215.173889
2033.330200	202.294159
2032.551514	192.629166
2031.772705	234.326630
2030.993774	253.544312
2030.214600	198.951157
2029.435425	211.751602
2028.656128	218.132141
2027.876587	224.510559
2027.097046	211.646271
2026.317261	205.198715
2025.537476	240.427368
2024.757446	214.746155
2023.977295	195.482727
2023.197021	195.450302
2022.416626	262.692871
2021.636230	240.228012
2020.855591	227.378113
2020.074707	214.532486
2019.293823	220.899780
2018.512817	204.858551
2017.731689	211.225311
2016.950439	217.589966
2016.168945	223.952484
2015.387451	195.126205
2014.605713	252.662476
2013.823975	262.213715
2013.041992	290.944977
2012.260010	233.356659
2011.477783	233.317917
2010.695435	252.452805
2009.912964	252.410889
2009.130371	239.590790
2008.347656	261.909088
2007.564819	229.930771
2006.781860	239.471436
2005.998779	239.431656
2005.215576	239.391876
2004.432129	274.457092
2003.648682	274.411499
2002.864990	255.224091
2002.081299	242.422592
2001.297363	220.057632
2000.513428	277.417847
1999.729248	274.183563
1998.944946	264.575043
1998.160522	296.402283
1997.375977	229.434601
1996.591309	251.698883
1995.806519	264.399170
1995.021606	286.650238
1994.236572	229.282059
1993.451416	216.508163
1992.666016	254.673126
1991.880615	245.082123
1991.094971	273.682556
1990.309326	276.818878
1989.523438	289.498016
1988.737549	254.461426
1987.951416	257.599335
1987.165161	260.736206
1986.378784	251.155273
1985.592285	260.649445
1984.805664	260.606079
1984.018921	263.740295
1983.232056	304.998260
1982.444946	314.477112
1981.657837	279.488708
1980.870605	298.495056
1980.083130	295.270416
1979.295654	263.477051
1978.507935	301.519897
1977.720093	279.256165
1976.932129	288.728180
1976.144165	272.818573
1975.355957	298.147369
1974.567627	320.296509
1973.779053	307.560272
1972.990479	288.487854
1972.201782	329.645508
1971.412964	335.928864
1970.623901	310.524017
1969.834839	300.968048
1969.045532	332.593475
1968.256226	285.032623
1967.466675	319.816650
1966.677002	278.605713
1965.887207	364.026337
1965.097290	354.470917
1964.307251	319.603516
1963.517090	297.403229
1962.726807	351.130371
1961.936401	341.583405
1961.145874	351.013306
1960.355103	357.278320
1959.564331	319.284027
1958.773315	347.677094
1957.982178	309.697021
1957.191040	325.443634
1956.399658	350.662323
1955.608154	388.506958
1954.816528	315.806641
1954.024780	322.069031
1953.232910	296.759216
1952.440918	375.621887
1951.648682	306.128113
1950.856445	347.097656
1950.063965	347.039764
1949.271484	337.518707
1948.478760	318.539276
1947.685913	321.639435
1946.893066	346.808167
1946.099976	321.532104
1945.306763	371.906433
1944.513428	368.693115
1943.719971	352.878082
1942.926270	362.269684
1942.132568	381.107086
1941.338745	368.446991
1940.544678	415.614380
1939.750610	365.175903
1938.956299	358.819824
1938.161865	365.053925
1937.367310	355.553497
1936.572632	424.705353
1935.777832	408.907227
1934.982910	364.810120
1934.187866	386.759888
1933.392700	374.119843
1932.597290	364.627319
1931.801880	373.994843
1931.006226	373.932343
1930.210571	345.593994
1929.414673	392.654816
1928.618652	386.307770
1927.822510	367.402069
1927.026245	401.876953
1926.229858	433.201172
1925.433350	411.158478
1924.636719	348.327942
1923.839844	376.507782
1923.042969	360.759644
1922.245850	376.381897
1921.448730	404.542877
1920.651367	391.933380
1919.853882	395.002777
1919.056274	404.339966
1918.258545	438.745178
1917.460693	391.671234
1916.662720	410.402802
1915.864624	407.201813
1915.066284	385.211090
1914.267944	428.984497
1913.469360	428.912720
1912.670776	391.278229
1911.871948	441.287994
1911.072998	388.018097
1910.273926	441.140289
1909.474731	412.913300
1908.675415	400.333740
1907.875977	409.647980
1907.076294	431.465332
1906.276611	425.141022
1905.476807	418.818817
1904.676758	399.998749
1903.876587	390.558380
1903.076294	387.369019
1902.275879	424.785217
1901.475342	452.820129
1900.674683	449.621918
1899.873901	402.718842
1899.072998	421.379364
1898.271851	430.671173
1897.470703	436.839600
1896.669312	418.047852
1895.867920	389.904663
1895.066284	439.738770
1894.264526	405.364990
1893.462646	439.591400
1892.660645	442.634888
1891.858521	448.793945
1891.056152	426.906006
1890.253784	439.296783
1889.451172	473.488770
1888.648560	448.493103
1887.845703	495.128113
1887.042725	473.250671
1886.239624	466.945374
1885.436401	373.493652
1884.633057	435.669525
1883.829590	469.821899
1883.025879	441.745178
1882.222168	457.222870
1881.418213	441.596985
1880.614258	416.648376
1879.810059	500.515961
1879.005737	475.565796
1878.201294	478.593750
1877.396729	456.762848
1876.592041	484.646576
1875.787231	487.671417
1874.982178	472.061249
1874.177124	394.353394
1873.371826	475.007446
1872.566406	440.782562
1871.760986	508.987366
1870.955322	471.665192
1870.149536	471.586029
1869.343506	477.710876
1868.537476	443.514191
1867.731323	468.247528
1866.924927	424.762512
1866.118530	480.490021
1865.311890	536.198792
1864.505127	489.625305
1863.698242	470.952820
1862.891235	461.580170
1862.084106	501.767944
1861.276855	480.005951
1860.469482	486.117889
1859.661865	492.227753
1858.854126	467.383026
1858.046387	445.641388
1857.238403	479.602814
1856.430298	460.960052
1855.622070	491.814301
1854.813721	476.268372
1854.005249	432.898468
1853.196533	463.741821
1852.387817	476.028229
1851.578857	522.306763
1850.769775	522.218933
1849.960693	522.131165
1849.151367	472.619110
1848.341919	521.955566
1847.532227	528.043701
1846.722534	537.217285
1845.912720	527.866089
1845.102661	509.258789
1844.292603	422.767975
1843.482300	441.209137
1842.671875	527.510986
1841.861328	499.663147
1841.050659	450.237915
1840.239868	505.661621
1839.428833	483.997040
1838.617798	542.478577
1837.806519	508.488098
1836.995117	520.727417
1836.183716	517.559021
1835.372070	486.670013
1834.560303	477.349060
1833.748291	517.297668
1832.936279	480.266968
1832.124146	498.654816
1831.311768	492.415649
1830.499390	467.716064
1829.686768	501.479492
1828.874023	516.775208
1828.061157	498.235046
1827.248169	575.026306
1826.434937	501.141693
1825.621704	473.391510
1824.808228	531.707397
1823.994751	479.377869
1823.181030	565.324768
1822.367188	537.582458
1821.553223	522.134949
1820.739136	561.968140
1819.924927	534.240295
1819.110474	506.521820
1818.296021	524.852295
1817.481323	494.075867
1816.666626	475.582916
1815.851685	515.383606
1815.036621	472.355316
1814.221436	509.076385
1813.406006	518.189148
1812.590576	518.101746
1811.774902	527.209900
1810.959229	527.120972
1810.143311	533.160339
1809.327271	505.497803
1808.511108	545.232910
1807.694824	520.640198
1806.878418	450.124695
1806.061768	499.033661
1805.245117	498.949463
1804.428223	547.833618
1803.611206	486.541046
1802.794067	486.458923
1801.976807	507.789642
1801.159424	538.288513
1800.341919	559.603210
1799.524170	531.991943
1798.706421	498.276123
1797.888428	534.868713
1797.070313	562.281311
1796.252075	479.691620
1795.433716	525.433289
1794.615234	537.561829
1793.796509	546.632507
1792.977783	531.273682
1792.158813	528.131165
1791.339844	503.623840
1790.520630	527.952759
1789.701294	506.504913
1788.881714	533.875793
1788.062134	481.932159
1787.242432	509.297913
1786.422485	539.703552
1785.602417	530.466370
1784.782349	512.087891
1783.962036	539.429993
1783.141479	524.103210
1782.320923	548.387390
1781.500244	469.096588
1780.679321	502.518524
1779.858398	529.839050
1779.037231	499.304077
1778.215942	483.999512
1777.394531	538.700806
1776.572998	532.523743
1775.751221	502.008881
1774.929443	489.756104
1774.107422	553.543701
1773.285278	556.491028
1772.463013	529.033081
1771.640625	577.582092
1770.818115	553.169189
1769.995483	543.958984
1769.172607	559.058777
1768.349731	507.320709
1767.526611	546.720215
1766.703369	513.222656
1765.880005	558.680420
1765.056519	540.371094
1764.232910	537.244324
1763.409058	549.292419
1762.585083	561.336426
1761.761108	591.578796
1760.936890	582.378906
1760.112549	570.149475
1759.288086	551.859741
1758.463379	554.797974
1757.638672	542.579346
1756.813721	539.456787
1755.988647	530.274963
1755.163574	563.511047
1754.338257	578.561157
1753.512695	629.949402
1752.687134	523.859558
1751.861328	587.349915
1751.035522	544.871460
1750.209473	565.964966
1749.383301	623.363770
1748.557007	553.671082
1747.730591	529.377136
1746.903931	517.189392
1746.077271	595.725403
1745.250366	556.319214
1744.423340	532.041199
1743.596313	507.771423
1742.768921	571.145996
1741.941528	589.177673
1741.114014	570.952271
1740.286255	546.692261
1739.458374	603.977417
1738.630493	597.836182
1737.802368	470.942566
1736.973999	573.486572
1736.145630	618.656860
1735.317139	567.257385
1734.488403	524.925720
1733.659546	554.999695
1732.830566	542.842346
1732.001465	603.055786
1731.172241	630.086365
1730.342896	632.993652
1729.513306	593.707520
1728.683594	605.659729
1727.853882	638.696838
1727.023926	605.454102
1726.193726	593.304504
1725.363525	623.315613
1724.533203	668.369934
1723.702637	635.144592
1722.871948	622.998108
1722.041138	634.928894
1721.210205	652.872864
1720.379150	586.583313
1719.547974	577.460876
1718.716553	616.455017
1717.885010	613.343689
1717.053467	595.203064
1716.221558	607.124146
1715.389648	607.020996
1714.557617	651.986023
1713.725342	603.810669
1712.893066	570.669312
1712.060547	576.578369
1711.227905	651.542908
1710.395142	630.418213
1709.562256	675.333252
1708.729126	633.204834
1707.895874	630.096680
1707.062622	683.988647
1706.229126	632.881897
1705.395508	599.786011
1704.561646	677.642944
1703.727783	644.550659
1702.893677	647.438477
1702.059570	638.337646
1701.225220	683.174805
1700.390747	650.104004
1699.556030	691.928406
1698.721313	637.903381
1697.886353	637.794861
1697.051392	649.661621
1696.216187	673.497681
1695.380859	685.354309
1694.545410	673.268433
1693.709717	679.137451
1692.874023	658.082825
1692.038086	669.933899
1691.202026	645.897705
1690.365845	648.777527
1689.529541	666.602539
1688.692993	648.556580
1687.856445	660.399109
1687.019653	675.225220
1686.182739	681.084656
1685.345703	680.968689
1684.508545	642.032104
1683.671143	677.751038
1682.833740	707.487366
1681.996094	662.596741
1681.158325	695.309631
1680.320435	674.305603
1679.482422	701.039001
1678.644287	617.405701
1677.805908	712.728638
1676.967407	688.754211
1676.128784	694.598999
1675.290039	652.752197
1674.451172	676.481689
1673.612183	727.019348
1672.772949	661.355652
1671.933594	679.114319
1671.094116	690.910767
1670.254517	714.613403
1669.414795	693.652222
1668.574829	642.932739
1667.734863	663.655273
1666.894653	726.028137
1666.054321	657.478882
1665.213867	731.729492
1664.373169	684.020630
1663.532471	692.824402
1662.691528	707.571106
1661.850464	728.257751
1661.009277	707.329651
1660.167969	665.608459
1659.326538	609.046631
1658.484863	769.347107
1657.643066	742.486267
1656.801147	727.512329
1655.959106	721.450256
1655.116943	709.453430
1654.274658	715.268127
1653.432129	682.504456
1652.589478	637.884399
1651.746704	726.767395
1650.903809	717.745605
1650.060791	735.415344
1649.217529	699.711182
1648.374146	749.985962
1647.530640	711.327637
1646.687012	672.682434
1645.843262	731.824585
1644.999390	660.603210
1644.155273	761.192932
1643.311035	669.261475
1642.466675	698.755432
1641.622192	740.080505
1640.777588	757.712891
1639.932739	698.397217
1639.087769	704.195435
1638.242798	739.574646
1637.397461	683.250122
1636.552124	709.748901
1635.706665	777.633545
1634.860962	768.631714
1634.015137	741.898376
1633.169189	771.324158
1632.323120	759.373230
1631.476929	723.792297
1630.630493	723.668457
1629.783936	702.872009
1628.937256	752.948303
1628.090454	776.437378
1627.243530	675.945740
1626.396484	720.098450
1625.549194	702.270935
1624.701782	711.001404
1623.854248	734.477417
1623.006592	746.148499
1622.158691	748.969482
1621.310791	728.203918
1620.462646	763.451538
1619.614380	689.641235
1618.765991	683.629822
1617.917358	733.597778
1617.068726	695.178406
1616.219849	786.359558
1615.370850	747.944275
1614.521729	738.983704
1613.672363	727.082520
1612.822998	726.958008
1611.973389	720.948181
1611.123657	803.204651
1610.273804	773.650696
1609.423828	747.047974
1608.573608	793.970032
1607.723389	779.133362
1606.872925	767.241333
1606.022339	778.866333
1605.171509	717.021973
1604.320679	769.785095
1603.469604	754.965088
1602.618408	763.646973
1601.767090	754.706299
1600.915649	789.810059
1600.064087	801.417053
1599.212280	713.226929
1598.360352	771.796326
1597.508301	745.257263
1596.656128	780.332397
1595.803833	739.135498
1594.951294	791.795044
1594.098633	826.844116
1593.245850	747.549927
1592.392944	712.248901
1591.539795	820.557495
1590.686646	785.256042
1589.833252	770.473511
1588.979736	720.547363
1588.126099	720.423706
1587.272217	761.292786
1586.418335	761.162109
1585.564209	731.761047
1584.709961	772.606995
1583.855591	766.622314
1583.000977	801.597107
1582.146362	783.909302
1581.291504	810.095520
1580.436523	786.564148
1579.581421	789.352600
1578.726074	786.294006
1577.870605	751.088684
1577.015137	847.386414
1576.159424	815.104126
1575.303467	797.438049
1574.447510	768.095886
1573.591309	776.723938
1572.734985	750.314880
1571.878540	808.566223
1571.021973	767.568115
1570.165161	767.436218
1569.308350	813.984436
1568.451294	781.757507
1567.594116	854.535706
1566.736694	778.572754
1565.879272	816.340454
1565.021606	807.455139
1564.163818	795.658325
1563.305908	815.919495
1562.447876	824.519653
1561.589600	748.640015
1560.731201	780.548706
1559.872681	824.094360
1559.014038	803.572205
1558.155273	774.324036
1557.296265	730.533447
1556.437134	814.797546
1555.577881	849.571289
1554.718506	791.245300
1553.859009	791.109131
1552.999268	790.973022
1552.139404	872.246582
1551.279419	834.305664
1550.419312	825.442566
1549.558960	813.676575
1548.698608	833.874939
1547.838013	839.541321
1546.977173	792.925049
1546.116333	792.788513
1545.255249	862.335693
1544.394165	867.993225
1543.532837	792.379089
1542.671265	809.654541
1541.809692	858.840393
1540.947876	870.296448
1540.085938	780.231384
1539.223877	840.996765
1538.361694	835.052917
1537.499268	823.313049
1536.636841	828.968201
1535.774170	852.009277
1534.911377	822.887573
1534.048340	863.303650
1533.185303	825.500488
1532.322021	865.902100
1531.458618	822.320435
1530.594971	856.918640
1529.731323	871.243408
1528.867432	876.881226
1528.003418	810.179565
1527.139282	917.080872
1526.275024	859.072754
1525.410522	821.328552
1524.545898	803.837891
1523.681152	873.083374
1522.816284	910.509399
1521.951172	872.782227
1521.086060	803.283508
1520.220703	855.147095
1519.355225	895.438721
1518.489502	846.187988
1517.623779	837.379456
1516.757813	883.427246
1515.891724	839.976990
1515.025513	868.692261
1514.159058	831.030518
1513.292480	885.702576
1512.425781	865.358032
1511.558960	870.976685
1510.692017	821.806274
1509.824829	856.260803
1508.957520	850.347900
1508.090088	855.965149
1507.222534	824.120422
1506.354736	878.717896
1505.486938	843.999634
1504.618896	927.375183
1503.750610	889.780884
1502.882324	906.901489
1502.013794	846.295166
1501.145142	840.392822
1500.276367	869.023254
1499.407471	883.258423
1498.538330	903.241760
1497.669067	905.961731
1496.799683	833.915894
1495.930176	948.774780
1495.060547	911.241272
1494.190674	954.194946
1493.320679	939.662109
1492.450562	893.530273
1491.580200	907.738708
1490.709717	967.895752
1489.839233	867.222473
1488.968384	935.978943
1488.097534	941.558289
1487.226440	990.187256
1486.355347	912.536499
1485.483887	961.153625
1484.612427	955.250122
1483.740845	983.766113
1482.869019	992.198792
1481.997070	1017.831299
1481.124878	934.522766
1480.252686	971.620911
1479.380249	1034.496826
1478.507690	1057.239014
1477.635010	1008.356995
1476.762207	1068.329712
1475.889160	1048.099121
1475.015991	1076.549316
1474.142700	1165.105713
1473.269165	1199.250000
1472.395630	1176.148926
1471.521851	1167.361816
1470.647949	1164.298950
1469.773804	1321.407715
1468.899658	1352.635498
1468.025269	1392.430054
1467.150757	1578.004639
1466.276001	1466.261108
1465.401245	1800.359619
1464.526245	1900.050415
1463.651123	2048.270752
1462.775879	2207.864746
1461.900391	2401.672119
1461.024780	2678.213867
1460.149048	2789.084961
1459.273193	2911.334229
1458.397217	2942.220947
1457.520996	2827.580322
1456.644653	2844.206787
1455.768188	2715.361572
1454.891479	2560.895020
1454.014648	2474.912354
1453.137695	2292.032959
1452.260620	2334.389893
1451.383423	2254.190674
1450.505981	2065.745605
1449.628418	1903.005127
1448.750732	1837.163818
1447.872803	1768.497314
1446.994873	1688.465332
1446.116699	1588.533325
1445.238403	1568.333252
1444.359863	1536.756836
1443.481201	1482.428467
1442.602417	1479.326416
1441.723511	1456.314697
1440.844482	1493.032227
1439.965210	1421.688721
1439.085815	1489.671143
1438.206299	1503.624512
1437.326538	1543.150024
1436.446777	1738.938843
1435.566772	1761.364258
1434.686646	1780.941284
1433.806274	1811.871216
1432.925781	1732.052490
1432.045166	1655.100342
1431.164429	1453.283325
1430.283569	1384.920044
1429.402466	1282.531006
1428.521240	1180.177490
1427.639893	1145.934692
1426.758301	1154.243530
1425.876709	1131.359131
1424.994873	1125.492554
1424.112793	1122.462402
1423.230713	1130.769409
1422.348389	1014.398682
1421.465942	1056.717773
1420.583374	1183.997925
1419.700562	1098.830933
1418.817627	1146.776123
1417.934570	1123.928345
1417.051392	1081.274536
1416.167969	1149.008179
1415.284546	1145.978760
1414.400757	1012.812439
1413.516968	1142.751587
1412.633057	1083.162720
1411.748901	1063.181030
1410.864624	1091.267212
1409.980103	1161.743042
1409.095459	1141.757935
1408.210815	1133.082397
1407.325806	1082.032471
1406.440796	1158.109985
1405.555542	1118.370117
1404.670166	1092.762329
1403.784668	1120.803955
1402.899048	1066.977783
1402.013184	1086.547363
1401.127197	1083.536499
1400.241089	1176.448120
1399.354736	1097.262939
1398.468262	1097.071777
1397.581665	1122.258545
1396.694946	1113.605347
1395.807983	1197.974243
1394.920898	1166.764526
1394.033691	1169.379150
1393.146362	1202.982910
1392.258789	1104.185303
1391.371094	1151.870239
1390.483276	1131.958862
1389.595337	1190.883423
1388.707153	1140.008911
1387.818848	1156.696289
1386.930420	1209.957886
1386.041748	1206.933716
1385.152954	1237.664917
1384.264038	1240.261597
1383.375000	1183.807495
1382.485718	1194.846680
1381.596313	1214.314819
1380.706787	1242.207275
1379.817139	1275.709839
1378.927246	1297.962891
1378.037231	1289.309692
1377.147095	1348.062622
1376.256714	1364.675293
1375.366333	1378.474609
1374.475586	1428.760132
1373.584839	1330.283203
1372.693970	1380.559326
1371.802856	1399.957153
1370.911499	1388.492676
1370.020142	1427.514038
1369.128540	1371.183838
1368.236816	1314.873169
1367.344971	1339.871338
1366.453003	1294.796021
1365.560791	1403.851929
1364.668457	1456.837402
1363.775879	1478.992065
1362.883301	1501.138794
1361.990479	1590.481323
1361.097534	1604.201782
1360.204346	1752.277466
1359.311035	1760.367432
1358.417603	1729.279907
1357.524048	1726.180176
1356.630249	1639.165039
1355.736450	1650.065552
1354.842285	1571.482788
1353.948120	1450.991211
1353.053711	1436.761475
1352.159180	1324.719727
1351.264526	1260.219727
1350.369751	1234.855347
1349.474731	1268.159180
1348.579590	1253.973389
1347.684204	1225.830933
1346.788818	1189.322754
1345.893188	1219.819702
1344.997314	1222.397339
1344.101440	1160.795410
1343.205322	1208.020386
1342.309082	1235.703125
1341.412720	1229.909180
1340.516113	1238.059326
1339.619385	1279.661865
1338.722534	1273.863037
1337.825439	1270.853271
1336.928223	1407.168091
1336.030884	1415.279785
1335.133423	1426.174194
1334.235718	1548.464966
1333.337891	1684.635620
1332.439941	1895.927368
1331.541870	2109.928711
1330.643555	2362.817871
1329.745117	2507.097900
1328.846436	2712.533447
1327.947754	2723.184814
1327.048828	2547.498047
1326.149780	2280.112061
1325.250488	2082.322998
1324.351074	1895.721802
1323.451538	1717.523315
1322.551880	1531.051147
1321.651978	1411.320801
1320.751953	1266.632935
1319.851807	1205.312256
1318.951416	1207.877930
1318.050903	1163.246338
1317.150269	1088.097046
1316.249512	1043.502075
1315.348511	998.922668
1314.447388	962.681702
1313.546021	954.191528
1312.644653	942.930969
1311.743042	923.355835
1310.841309	923.193970
1309.939331	961.838257
1309.037231	900.699219
1308.135010	889.457703
1307.232666	905.924194
1306.330078	927.924744
1305.427368	947.148071
1304.524536	960.826721
1303.621460	874.835754
1302.718262	880.218262
1301.814941	943.716248
1300.911499	940.783691
1300.007813	965.517334
1299.104004	910.027161
1298.199951	884.977478
1297.295898	929.063293
1296.391602	862.550232
1295.487061	848.578369
1294.582520	906.465332
1293.677734	878.674927
1292.772827	806.691956
1291.867676	839.696228
1290.962402	806.408752
1290.057007	726.192688
1289.151489	753.672180
1288.245728	723.177429
1287.339844	756.167236
1286.433838	684.293945
1285.527588	755.901672
1284.621216	717.152954
1283.714722	703.237976
1282.808105	689.327881
1281.901245	680.936340
1280.994263	631.202515
1280.087036	620.068176
1279.179810	633.736084
1278.272217	724.536072
1277.364624	663.811829
1276.456787	688.480469
1275.548828	611.263184
1274.640747	638.685242
1273.732544	611.048279
1272.824097	671.484558
1271.915405	654.857483
1271.006714	624.481140
1270.097778	632.622925
1269.188721	577.510681
1268.279541	648.897827
1267.370117	670.776367
1266.460571	579.954590
1265.550781	676.036682
1264.640991	590.741089
1263.730957	587.890015
1262.820679	552.079956
1261.910400	620.637390
1260.999878	626.019592
1260.089233	628.654602
1259.178345	675.204468
1258.267334	683.318359
1257.356201	639.297791
1256.444824	674.847961
1255.533447	666.500793
1254.621704	693.806641
1253.709961	729.328308
1252.797974	690.820984
1251.885864	698.921936
1250.973633	665.914185
1250.061157	641.137817
1249.148560	619.109497
1248.235840	583.394226
1247.322876	613.414490
1246.409790	665.327942
1245.496582	615.935852
1244.583130	582.983215
1243.669556	555.515259
1242.755859	533.528992
1241.841919	552.583923
1240.927856	620.863586
1240.013672	566.062134
1239.099365	604.240051
1238.184814	598.666260
1237.270142	535.698181
1236.355225	543.801758
1235.440186	609.278442
1234.525024	595.512451
1233.609741	565.363953
1232.694214	537.956787
1231.778564	592.467224
1230.862671	606.011597
1229.946777	592.258240
1229.030640	649.458984
1228.114258	635.702698
1227.197876	651.957703
1226.281128	670.934326
1225.364380	717.173096
1224.447388	771.574829
1223.530273	815.053589
1222.613037	853.066040
1221.695557	953.739380
1220.777954	967.193481
1219.860229	1056.915039
1218.942261	1103.028320
1218.024170	1160.017578
1217.105957	1146.199951
1216.187500	993.560852
1215.268921	947.118164
1214.350220	816.336975
1213.431274	816.192810
1212.512207	772.526062
1211.593018	660.882690
1210.673706	706.992371
1209.754150	666.086670
1208.834351	611.604187
1207.914551	646.827026
1206.994507	616.822632
1206.074219	586.828857
1205.153931	586.725159
1204.233398	540.452148
1203.312744	559.364136
1202.391846	586.414124
1201.470825	559.166443
1200.549683	537.356201
1199.628296	567.109070
1198.706787	534.453308
1197.785156	542.496216
1196.863281	574.944336
1195.941284	555.862000
1195.019165	485.276581
1194.096802	520.428101
1193.174438	552.857056
1192.251709	479.599915
1191.328979	474.096832
1190.406006	511.933990
1189.482788	517.259766
1188.559570	468.429871
1187.636108	500.833496
1186.712402	473.677551
1185.788696	462.768738
1184.864746	511.390717
1183.940552	484.247284
1183.016357	494.980804
1182.091919	511.119202
1181.167236	540.771118
1180.242554	556.895630
1179.317505	554.094116
1178.392456	581.020203
1177.467163	583.619263
1176.541748	578.112976
1175.616211	653.638184
1174.690430	650.821899
1173.764526	666.906738
1172.838501	701.882751
1171.912231	812.420288
1170.985840	931.014465
1170.059204	1019.887268
1169.132446	1081.752197
1168.205566	1221.812744
1167.278564	1253.956299
1166.351318	1164.759399
1165.423828	1148.378662
1164.496338	1110.441650
1163.568604	1053.654663
1162.640747	959.167664
1161.712646	953.609985
1160.784424	977.680908
1159.856079	999.050415
1158.927490	998.873230
1157.998779	1065.993652
1157.069946	1119.633179
1156.140869	1111.361694
1155.211670	1302.187988
1154.282349	1347.686890
1153.352783	1624.468018
1152.423096	1788.211182
1151.493164	1865.862183
1150.563232	1892.411987
1149.632935	1636.753418
1148.702637	1590.781616
1147.772095	1378.253662
1146.841431	1235.641602
1145.910522	1168.279785
1144.979492	896.864746
1144.048340	802.739380
1143.116943	724.752991
1142.185425	695.102600
1141.253784	630.579529
1140.321899	614.370544
1139.389893	528.425781
1138.457764	517.604370
1137.525391	514.830994
1136.592896	512.058594
1135.660278	490.523987
1134.727417	487.756866
1133.794434	444.798096
1132.861206	439.360992
1131.927856	482.139801
1130.994385	447.239105
1130.060669	428.416382
1129.126831	431.017365
1128.192871	401.497620
1127.258667	438.892700
1126.324341	441.490356
1125.389893	436.061432
1124.455200	390.513184
1123.520386	419.860748
1122.585327	430.481262
1121.650146	443.771332
1120.714844	403.599701
1119.779297	382.148956
1118.843628	392.768555
1117.907837	376.670197
1116.971802	376.603180
1116.035645	427.275085
1115.099365	427.199066
1114.162842	352.376526
1113.226196	360.320953
1112.289307	362.925385
1111.352417	392.209839
1110.415161	424.151459
1109.477905	381.401642
1108.540405	429.333801
1107.602661	450.586945
1106.664917	431.846680
1105.726807	447.761261
1104.788696	503.641724
1103.850342	482.237671
1102.911865	516.781494
1101.973145	474.075867
1101.034302	553.877625
1100.095337	455.270203
1099.156128	444.541412
1098.216797	441.800781
1097.277344	447.044006
1096.337646	420.359344
1095.397827	372.403931
1094.457764	343.082489
1093.517700	390.884766
1092.577271	356.253235
1091.636841	369.480408
1090.696167	345.495605
1089.755249	337.462463
1088.814209	342.715729
1087.873047	286.873627
1086.931763	294.789764
1085.990234	313.324249
1085.048584	321.232819
1084.106689	345.064636
1083.164673	326.425995
1082.222412	331.674561
1081.280151	313.044922
1080.337524	331.556244
1079.394897	339.453033
1078.452026	424.240570
1077.509033	395.003540
1076.565796	328.669128
1075.622437	291.509277
1074.678955	323.252594
1073.735229	312.598358
1072.791382	352.272552
1071.847290	362.802429
1070.903076	309.783264
1069.958740	312.375214
1069.014160	314.966217
1068.069458	362.543396
1067.124512	312.207916
1066.179565	335.960358
1065.234253	364.994110
1064.288940	343.773621
1063.343384	341.068268
1062.397583	346.294281
1061.451660	327.731445
1060.505615	335.600464
1059.559448	356.676910
1058.613037	364.537903
1057.666382	375.037201
1056.719727	330.079376
1055.772827	382.823639
1054.825684	382.755219
1053.878418	358.933838
1052.931030	438.032104
1051.983398	477.527924
1051.035645	448.426727
1050.087769	485.269196
1049.139648	427.171478
1048.191406	485.095673
1047.242920	524.547668
1046.294312	632.507202
1045.345581	635.028992
1044.396606	690.239990
1043.447510	721.724915
1042.498291	721.595825
1041.548828	834.689575
1040.599121	742.398560
1039.649414	808.069458
1038.699341	821.083191
1037.749268	865.666748
1036.798950	847.096680
1035.848511	818.012146
1034.897827	817.865723
1033.947021	815.090027
1032.996094	746.593933
1032.044922	678.122375
1031.093506	525.582092
1030.142090	559.644714
1029.190430	512.259033
1028.238525	504.287811
1027.286499	504.197510
1026.334351	422.714874
1025.381958	420.014069
1024.429443	364.821869
1023.476807	385.749664
1022.523926	398.798950
1021.570923	382.988251
1020.617737	393.410583
1019.664368	356.628326
1018.710815	364.429810
1017.757080	366.985809
1016.803223	374.782593
1015.849121	385.196960
1014.894897	369.408417
1013.940491	392.917206
1012.985962	374.513916
1012.031189	395.394836
1011.076294	405.796082
1010.121216	374.312469
1009.165955	408.267639
1008.210510	384.644745
1007.254944	436.898987
1006.299133	468.208923
1005.343201	496.892365
1004.387085	522.950745
1003.430786	562.071228
1002.474365	653.453918
1001.517700	755.257141
1000.560913	953.700317
999.603943	1076.312378
998.646790	1180.596680
997.689514	1235.225708
996.731995	1101.842896
995.774353	1010.276367
994.816528	882.201843
993.858521	756.782837
992.900330	670.545715
991.942017	610.426147
990.983459	539.895386
990.024780	498.074860
989.065918	445.840332
988.106873	404.051697
987.147705	411.798065
986.188293	445.600098
985.228760	432.493134
984.269043	419.390869
983.309143	382.853271
982.349060	411.428223
981.388794	408.750763
980.428406	452.928986
979.467834	497.091309
978.507019	536.033508
977.546082	613.986267
976.585022	733.529602
975.623718	876.436279
974.662292	1050.494385
973.700623	1084.102417
972.738831	1156.687744
971.776855	1182.468018
970.814758	1034.148682
969.852417	857.305725
968.889954	727.280029
967.927246	641.449463
966.964417	579.018188
966.001404	477.668976
965.038208	462.009674
964.074890	420.405029
963.111328	422.924011
962.147644	417.659576
961.183777	433.146545
960.219727	425.288879
959.255493	409.655792
958.291077	316.259552
957.326538	373.222748
956.361755	378.338257
955.396851	339.406769
954.431763	326.393524
953.466492	362.594147
952.501038	341.812897
951.535461	352.107422
950.569641	370.163910
949.603699	336.452026
948.637573	346.741913
947.671265	367.376740
946.704773	426.804474
945.738098	450.003632
944.771240	444.751007
943.804260	548.082642
942.837097	519.550781
941.869751	581.481812
940.902222	633.054993
939.934509	576.105347
938.966614	637.992676
937.998535	624.965088
937.030334	529.317139
936.061951	482.753448
935.093323	428.463196
934.124573	412.902100
933.155640	407.667267
932.186584	350.840179
931.217285	361.093842
930.247864	332.662170
929.278198	324.867218
928.308411	345.431366
927.338440	306.708313
926.368286	298.922211
925.397949	332.362122
924.427429	321.998199
923.456787	298.760376
922.485901	350.207581
921.514893	334.696808
920.543701	283.153839
919.572327	293.397369
918.600769	362.820709
917.629028	316.446014
916.657104	306.099792
915.685059	326.618927
914.712769	313.703247
913.740356	336.784424
912.767761	334.153198
911.794983	295.543640
910.822021	318.615570
909.848877	308.281952
908.875549	305.657684
907.902039	367.236542
906.928406	403.116913
905.954590	377.372467
904.980530	369.604156
904.006348	405.464600
903.031982	436.180511
902.057434	497.668945
901.082703	577.088989
900.107849	605.192810
899.132751	553.805115
898.157532	535.760803
897.182068	530.537903
896.206482	538.129517
895.230713	425.301636
894.254761	404.731934
893.278625	391.853058
892.302307	350.811493
891.325806	340.507202
890.349182	330.206604
889.372314	376.213867
888.395325	314.734222
887.418091	322.352325
886.440735	301.830872
885.463196	335.022766
884.485474	350.303894
883.507568	327.231964
882.529480	314.392517
881.551270	327.113464
880.572815	306.613342
879.594238	311.667114
878.615417	275.852081
877.636475	319.215393
876.657349	337.030396
875.677979	334.416565
874.698486	334.355957
873.718811	382.780975
872.739014	413.328552
871.758972	441.314087
870.778748	497.344818
869.798401	374.853546
868.817810	372.236023
867.837097	333.932068
866.856140	349.163361
865.875061	369.485474
864.893799	384.704773
863.912354	397.371277
862.930725	420.220337
861.948914	412.505157
860.966919	384.425812
859.984741	463.263641
859.002441	465.724548
858.019897	452.917664
857.037231	463.011597
856.054321	473.101837
855.071289	493.360748
854.088074	513.612305
853.104614	536.398682
852.121033	549.009949
851.137268	587.029053
850.153320	665.687012
849.169189	741.776062
848.184937	769.579956
847.200439	868.477112
846.215759	1046.045654
845.230896	1134.702637
844.245911	1563.422607
843.260681	2040.200562
842.275330	2666.494385
841.289795	3145.435303
840.304016	3038.344238
839.318115	2500.219727
838.332031	1881.162354
837.345764	1487.926880
836.359314	1282.375122
835.372681	1132.643311
834.385864	1018.433777
833.398865	891.600830
832.411743	881.308838
831.424377	795.059387
830.436829	772.130737
829.449158	777.052612
828.461243	776.911316
827.473206	736.286926
826.484924	726.034119
825.496521	624.731079
824.507935	660.020935
823.519104	652.315796
822.530151	680.004028
821.541016	581.310364
820.551697	626.690186
819.562195	644.261780
818.572510	641.618530
817.582642	737.474548
816.592590	790.368225
815.602356	802.847839
814.611938	992.018188
813.621399	1097.835571
812.630615	1375.198730
811.639648	1720.577759
810.648560	2449.232910
809.657227	2842.207031
808.665771	3119.050537
807.674072	2889.071289
806.682251	2475.175781
805.690186	2005.988892
804.697998	1481.541138
803.705566	1156.298462
802.713013	1017.558838
801.720276	717.701599
800.727356	715.053040
799.734253	646.954773
798.740906	649.353760
797.747437	596.390747
796.753784	571.122498
795.759949	525.739380
794.765930	553.309021
793.771729	457.654053
792.777344	470.141266
791.782776	447.432556
790.788025	449.864197
789.793091	439.731201
788.798035	429.601837
787.802734	437.059021
786.807251	434.467957
785.811584	434.388702
784.815796	431.799042
783.819763	361.440216
782.823547	361.374298
781.827148	338.726593
780.830627	321.104401
779.833862	331.078522
778.836975	348.572083
777.839844	320.928680
776.842529	323.376923
775.845093	333.343262
774.847412	320.752991
773.849609	360.781250
772.851563	340.675659
771.853394	375.676605
770.854980	330.535065
769.856445	327.971130
768.857666	292.867279
767.858765	290.311127
766.859680	390.347107
765.860352	332.735168
764.860901	377.697968
763.861206	355.121307
762.861389	330.052460
761.861389	299.992859
760.861145	317.434448
759.860779	324.873535
758.860168	264.848480
757.859436	269.796295
756.858521	282.235291
755.857361	309.652893
754.856079	307.099548
753.854614	329.510010
752.852905	366.887238
751.851074	289.463531
750.848999	319.349640
749.846802	361.697113
748.844421	376.595032
747.841797	401.461639
746.839050	314.129913
745.836121	294.131348
744.832947	294.077545
743.829651	358.808655
742.826111	371.199371
741.822449	343.732483
740.818604	318.765991
739.814514	321.197571
738.810303	328.607117
737.805847	321.080017
736.801270	268.761963
735.796448	320.962494
734.791504	305.977966
733.786316	300.947632
732.781006	313.326080
731.775452	313.268738
730.769775	320.668762
729.763855	365.346344
728.757751	335.460693
727.751526	325.461517
726.745056	288.142120
725.738403	355.144623
724.731628	285.553497
723.724609	302.879517
722.717407	307.788361
721.710083	307.731964
720.702515	337.450623
719.694763	339.869568
718.686829	359.650055
717.678711	329.825439
716.670410	309.929504
715.661987	356.973328
714.653320	322.208496
713.644470	309.759064
712.635437	294.836578
711.626221	294.782501
710.616821	309.588684
709.607178	321.913208
708.597412	321.854156
707.587463	321.795105
706.577332	316.786316
705.567017	294.458252
704.556458	321.618042
703.545776	333.926697
702.534912	323.973114
701.523804	294.242188
700.512573	318.909882
699.501099	333.681641
698.489502	326.206604
697.477661	311.321869
696.465698	321.146149
695.453491	350.726013
694.441101	308.681000
693.428589	288.872345
692.415833	325.847412
691.402893	345.532288
690.389771	315.857208
689.376465	288.660217
688.362976	310.807739
687.349304	293.486725
686.335449	313.159363
685.321411	320.497955
684.307190	313.044312
683.292725	335.166962
682.278137	362.209473
681.263367	322.725983
680.248352	337.445282
679.233215	386.636292
678.217834	430.884796
677.202332	406.188141
676.186584	280.587463
675.170654	255.927475
674.154541	297.707031
673.138306	319.791718
672.121826	312.354431
671.105164	339.346344
670.088318	326.991028
669.071289	304.807739
668.054016	294.920959
667.036621	292.409485
666.019043	319.380157
665.001282	272.651337
663.983276	260.321838
662.965149	304.471375
661.946777	292.140533
660.928223	306.813843
659.909546	301.849243
658.890625	287.072021
657.871521	348.348053
656.852234	326.209595
655.832764	316.340515
654.813110	316.282257
653.793274	306.418640
652.773254	348.027466
651.752991	313.657104
650.732605	296.449371
649.711975	293.945221
648.691223	311.034698
647.670227	328.117889
646.649048	367.228485
645.627747	323.101501
644.606201	349.962128
643.584473	359.684967
642.562561	366.957855
641.540466	332.647125
640.518127	349.704193
639.495667	337.414551
638.473022	330.018616
637.450134	388.616913
636.427063	332.340607
635.403870	307.847015
634.380432	300.461884
633.356812	293.079498
632.333008	312.560455
631.309021	351.565643
630.284851	327.091034
629.260498	392.924927
628.235901	373.331818
627.211182	329.349640
626.186218	348.802277
625.161133	360.931549
624.135803	321.852509
623.110291	338.857880
622.084595	314.421570
621.058716	324.111237
620.032654	384.963318
619.006409	375.148132
617.979919	323.931732
616.953308	362.833954
615.926453	360.332275
614.899414	350.528839
613.872253	382.103210
612.844849	420.965881
611.817261	408.723724
610.789490	325.945618
609.761475	335.613312
608.733337	330.688232
607.705017	335.489288
606.676453	374.317413
605.647705	337.795502
604.618774	335.303314
603.589722	374.109894
602.560425	349.752380
601.530884	354.544495
600.501221	335.055450
599.471375	390.825745
598.441284	385.899414
597.411011	366.415314
596.380615	359.069122
595.349976	337.171478
594.319153	332.258606
593.288147	312.798767
592.256897	356.379181
591.225525	358.737152
590.193970	339.283173
589.162170	387.680450
588.130188	409.411682
587.098022	389.959076
586.065674	348.718719
585.033142	334.126923
584.000427	355.851929
582.967468	384.829803
581.934387	367.819519
580.901062	353.234894
579.867554	384.616089
578.833862	420.822693
577.799988	391.727875
576.765930	396.490601
575.731628	362.576660
574.697205	418.094299
573.662537	413.184265
572.627747	398.612732
571.592712	371.969604
570.557434	376.730560
569.522034	415.292633
568.486450	357.278595
567.450623	371.693970
566.414673	410.235474
565.378479	390.857819
564.342102	412.495667
563.305542	405.183777
562.268799	438.867706
561.231812	446.019073
560.194702	457.988708
559.157349	450.673706
558.119812	510.829468
557.082092	546.871582
556.044189	527.500732
555.006042	474.421783
553.967773	493.596039
552.929260	462.209076
551.890625	462.123322
550.851746	454.818237
549.812683	469.169830
548.773376	495.543823
547.733948	521.908020
546.694275	550.667053
545.654419	490.459503
544.614441	507.194824
543.574158	490.277435
542.533752	531.035278
541.493164	506.912384
540.452332	518.828186
539.411316	561.959473
538.370178	600.272522
537.328735	597.760376
536.287170	585.648376
535.245422	652.732666
534.203430	707.795410
533.161255	700.467346
532.118896	767.492798
531.076355	755.360352
530.033630	798.375366
528.990723	826.991943
527.947571	802.871887
526.904236	793.137939
525.860718	802.573425
524.817017	816.796021
523.773132	744.798645
522.729004	754.237793
521.684692	742.127747
520.640198	746.776733
519.595520	691.597229
518.550659	622.082458
517.505615	576.515381
516.460327	636.201477
515.414856	581.083435
514.369202	557.066895
513.323364	513.936035
512.277283	532.960083
511.231079	551.976929
510.184631	570.986755
509.138000	537.439758
508.091187	503.905273
507.044159	467.995483
505.996948	518.041382
504.949554	539.426575
503.901947	556.030884
502.854126	515.366150
501.806152	498.571594
500.757965	541.409912
499.709564	572.309143
