#Wave		#Intensity
3200.600830	37.888672
3200.007080	25.259113
3199.413086	0.000000
3198.819092	33.668640
3198.224854	29.455606
3197.630615	42.073078
3197.036377	16.826687
3196.442139	12.618108
3195.847656	16.821600
3195.252930	-8.409529
3194.658447	50.449543
3194.063721	16.813971
3193.468750	25.217144
3192.873779	37.819996
3192.278809	25.209517
3191.683838	54.612362
3191.088623	21.001577
3190.493164	41.996803
3189.897949	33.592361
3189.302490	50.380920
3188.706787	41.977749
3188.111328	83.942802
3187.515381	54.554565
3186.919678	58.742184
3186.323730	8.390471
3185.727783	20.973003
3185.131592	25.163795
3184.535400	46.126644
3183.939209	46.119667
3183.342773	37.728561
3182.746338	4.191428
3182.149902	4.190794
3181.553223	-4.190159
3180.956543	58.653355
3180.359619	12.566673
3179.762695	29.317801
3179.165771	33.500984
3178.568604	29.308924
3177.971436	33.490841
3177.374268	54.414379
3176.776855	41.850880
3176.179443	20.922272
3175.581787	41.838207
3174.984131	8.366374
3174.386475	20.912767
3173.788574	29.273441
3173.190674	16.725147
3172.592773	33.445229
3171.994629	25.080122
3171.396484	58.511421
3170.798340	25.072525
3170.199951	41.781212
3169.601563	29.242418
3169.002930	41.768555
3168.404297	33.409782
3167.805664	54.282669
3167.206787	20.874786
3166.607910	62.614868
3166.008789	16.694769
3165.409912	29.211416
3164.810547	66.758835
3164.211426	54.233334
3163.612061	16.684650
3163.012695	41.705303
3162.413086	58.378574
3161.813477	33.354130
3161.213623	41.686340
3160.614014	4.168002
3160.013916	45.841072
3159.414063	41.667385
3158.813965	54.159389
3158.213867	54.151176
3157.613525	12.494531
3157.013184	24.985271
3156.412598	37.472225
3155.812256	54.118336
3155.211426	45.785496
3154.610840	12.485059
3154.010010	45.771606
3153.409180	37.443817
3152.808105	16.639172
3152.207031	41.591618
3151.605957	20.792654
3151.004639	8.315800
3150.403320	45.729961
3149.801758	16.626554
3149.200195	4.156008
3148.598633	66.486038
3147.996826	8.309493
3147.395020	29.078814
3146.793213	49.841827
3146.191162	12.458566
3145.589111	33.217800
3144.986816	33.212757
3144.384766	74.717361
3143.782227	29.052341
3143.179932	12.449114
3142.577393	37.341671
3141.974609	16.593779
3141.371826	16.591259
3140.769043	16.588739
3140.166260	58.051773
3139.563232	16.583702
3138.960205	41.452961
3138.356934	53.880665
3137.753662	8.288074
3137.150391	24.860447
3136.546875	33.142227
3135.943359	33.137196
3135.339600	33.132160
3134.735840	37.268017
3134.132080	45.542881
3133.528076	28.977430
3132.924072	33.112034
3132.320068	33.107002
3131.715820	70.341690
3131.111572	-24.822706
3130.507080	53.774357
3129.902588	53.766186
3129.298096	45.487549
3128.693604	20.673018
3128.088867	37.205776
3127.483887	45.466812
3126.878906	45.459904
3126.273926	16.528360
3125.668945	8.262924
3125.063721	49.570007
3124.458252	28.911442
3123.853027	49.554939
3123.247559	53.676353
3122.641846	24.769936
3122.036133	45.404640
3121.430420	37.143604
3120.824707	45.390835
3120.218750	8.251624
3119.612549	28.876291
3119.006592	24.747341
3118.400391	37.115368
3117.793945	28.863117
3117.187500	37.104076
3116.581055	37.098431
3115.974609	41.214211
3115.367920	41.207939
3114.760986	20.600836
3114.154297	57.673561
3113.547363	20.594566
3112.940186	20.591433
3112.333008	4.117660
3111.725830	12.351100
3111.118408	37.047661
3110.510986	37.042023
3109.903564	16.460615
3109.295898	28.801691
3108.688232	32.911209
3108.080566	41.132748
3107.472656	32.901188
3106.864746	24.672134
3106.256592	61.670948
3105.648438	0.000000
3105.040039	41.101448
3104.431885	45.204708
3103.823486	53.415607
3103.214844	20.541336
3102.606201	28.753492
3101.997559	28.749113
3101.388672	12.319172
3100.779785	45.163418
3100.170898	41.051399
3099.561768	24.627087
3098.952637	24.623335
3098.343262	24.619583
3097.733887	36.923748
3097.124512	53.326180
3096.514893	41.013889
3095.905273	45.108402
3095.295410	28.700974
3094.685791	32.796112
3094.075684	36.890007
3093.465820	24.589588
3092.855713	61.464603
3092.245361	24.582094
3091.635254	32.771130
3091.024658	16.383068
3090.414307	45.046566
3089.803711	8.189036
3089.193115	61.408409
3088.582275	28.652889
3087.971436	32.741165
3087.360596	16.368088
3086.749512	53.188171
3086.138428	20.453869
3085.527100	-12.270451
3084.915771	16.358105
3084.304443	12.266707
3083.692871	28.617952
3083.081299	44.964211
3082.469482	24.522192
3081.857910	49.036903
3081.245850	8.171570
3080.634033	16.340647
3080.021973	24.507231
3079.409668	20.419577
3078.797607	20.416462
3078.185059	12.248008
3077.572754	36.738415
3076.960205	61.221352
3076.347656	57.131207
3075.734863	40.801777
3075.122070	12.238665
3074.509033	53.026119
3073.895996	24.469858
3073.282959	48.932247
3072.669922	53.001842
3072.056641	52.993752
3071.443115	24.454920
3070.829834	16.300791
3070.216064	52.969482
3069.602539	12.221861
3068.988770	28.513319
3068.375000	32.581676
3067.760986	28.504612
3067.146973	28.500259
3066.532715	61.062656
3065.918701	28.491554
3065.304199	44.765602
3064.689941	20.344894
3064.075439	24.410143
3063.460693	28.474150
3062.846191	-8.134229
3062.231445	52.864407
3061.616455	40.658718
3061.001465	20.326252
3060.386475	56.904808
3059.771240	48.768097
3059.156006	28.443710
3058.540771	65.004257
3057.925293	60.932178
3057.309814	40.615246
3056.694092	28.426325
3056.078369	40.602829
3055.462646	52.775608
3054.846680	32.472332
3054.230713	44.642632
3053.614502	28.404606
3052.998291	24.343082
3052.382080	20.282801
3051.765625	56.783157
3051.149170	32.442558
3050.532715	64.875191
3049.916016	16.216318
3049.299316	24.320757
3048.682373	36.475555
3048.065430	12.156659
3047.448486	16.206400
3046.831299	8.101960
3046.214111	60.755405
3045.596680	68.845596
3044.979248	32.392971
3044.361816	4.048502
3043.744141	56.670353
3043.126465	8.094526
3042.508545	32.373150
3041.890869	16.184097
3041.272705	20.227026
3040.654785	52.582222
3040.036621	52.574173
3039.418213	56.609676
3038.799805	40.429295
3038.181396	36.380795
3037.562988	28.291842
3036.944336	56.575020
3036.325439	44.444996
3035.706543	32.318687
3035.087646	36.352955
3034.468750	32.308792
3033.849609	92.873550
3033.230469	56.523067
3032.611084	52.477669
3031.991699	44.397381
3031.372070	48.426090
3030.752441	68.593117
3030.132813	56.479801
3029.513184	32.269230
3028.893066	28.231249
3028.273193	28.226925
3027.653076	48.381599
3027.032959	60.467735
3026.412598	40.305649
3025.792480	28.209631
3025.171875	36.263969
3024.551270	56.401974
3023.930664	44.309044
3023.310059	40.274776
3022.689209	36.241745
3022.068115	44.288677
3021.447266	44.281887
3020.826172	56.350128
3020.204834	68.414665
3019.583496	32.190201
3018.962158	36.208427
3018.340576	44.247959
3017.718994	52.285023
3017.097412	56.298317
3016.475586	40.206917
3015.853760	68.341278
3015.231689	72.350258
3014.609619	32.150738
3013.987549	36.164036
3013.365234	76.334587
3012.742920	32.135948
3012.120361	28.114641
3011.497803	76.299469
3010.875244	44.166599
3010.252441	24.087177
3009.629639	56.194790
3009.006836	20.066488
3008.383789	44.139500
3007.760498	12.036199
3007.137451	52.148857
3006.514160	60.162525
3005.890625	60.153294
3005.267090	40.096043
3004.643555	32.071911
3004.019775	72.150726
3003.395996	60.116375
3002.772217	32.057144
3002.148193	56.091393
3001.524170	44.065041
3000.899902	36.047680
3000.275635	64.074928
2999.651367	44.044750
2999.026855	32.027626
2998.402344	40.028385
2997.777588	52.028912
2997.152832	48.019314
2996.528076	48.011940
2995.903076	52.004944
2995.278076	31.998127
2994.653076	67.985580
2994.027832	47.982449
2993.402344	39.979233
2992.777100	63.956944
2992.151367	39.966949
2991.525879	71.929459
2990.900146	67.922935
2990.274414	79.897057
2989.648438	63.907825
2989.022461	51.917130
2988.396240	87.846260
2987.770264	95.817551
2987.143799	67.860336
2986.517578	55.876392
2985.891113	39.905575
2985.264404	63.839108
2984.637695	111.701263
2984.010986	75.785637
2983.384033	39.881042
2982.757080	15.949965
2982.130127	63.790051
2981.502930	91.684097
2980.875732	63.770435
2980.248291	83.685829
2979.620850	91.641808
2978.993408	59.757206
2978.365723	95.596825
2977.738037	99.564713
2977.110107	63.711617
2976.482178	59.720451
2975.854248	139.326294
2975.226074	115.424019
2974.597900	75.611000
2973.969482	127.325249
2973.341309	103.435852
2972.712646	119.330696
2972.083984	131.243561
2971.455322	178.940964
2970.826660	143.130737
2970.197754	131.182983
2969.568604	174.883728
2968.939697	202.674942
2968.310547	139.069244
2967.681152	230.422119
2967.051758	198.609192
2966.422363	214.464905
2965.792725	222.373810
2965.163086	293.805878
2964.533203	265.972473
2963.903564	297.684540
2963.273438	289.701660
2962.643311	321.400299
2962.013184	273.743256
2961.383057	337.168030
2960.752686	309.353607
2960.122314	372.753326
2959.491699	364.766235
2958.861084	459.851776
2958.230225	435.999176
2957.599609	428.005981
2956.968506	416.052826
2956.337646	368.447144
2955.706299	348.584442
2955.075195	356.451904
2954.443848	328.677216
2953.812500	336.545288
2953.180908	332.534668
2952.549316	340.399689
2951.917725	328.474640
2951.285889	375.907013
2950.653809	356.067566
2950.021973	328.322784
2949.389893	316.406921
2948.757568	371.720825
2948.125244	324.217102
2947.492920	351.839935
2946.860352	300.401245
2946.227783	335.923279
2945.595215	272.648621
2944.962402	276.557404
2944.329590	244.913071
2943.696533	256.724091
2943.063477	221.143585
2942.430420	181.625641
2941.797119	240.814240
2941.163574	205.252609
2940.530273	153.915710
2939.896729	205.189285
2939.262939	197.266953
2938.629150	220.904907
2937.995361	177.485474
2937.361328	173.514587
2936.727295	149.830383
2936.093262	216.826294
2935.458984	193.142715
2934.824707	181.289658
2934.190186	204.904510
2933.555664	204.872894
2932.921143	204.841263
2932.286377	224.502884
2931.651367	259.910583
2931.016602	259.870453
2930.381592	200.777985
2929.746338	326.705902
2929.111084	310.913025
2928.475830	271.515015
2927.840332	310.817017
2927.204834	318.636597
2926.569336	330.386902
2925.933594	412.919861
2925.297607	389.264313
2924.661865	385.272827
2924.025879	385.213318
2923.389648	373.363403
2922.753418	432.248749
2922.117188	412.537323
2921.480713	412.473602
2920.844238	451.687012
2920.207764	451.617218
2919.571045	404.429443
2918.934082	404.366943
2918.297363	380.752747
2917.660156	404.241974
2917.023193	384.559143
2916.385986	384.499725
2915.748779	364.825989
2915.111328	396.147614
2914.473877	376.478149
2913.836182	403.867249
2913.198486	399.884369
2912.560791	415.501862
2911.922852	388.003082
2911.284912	384.024475
2910.646729	360.457031
2910.008545	360.401276
2909.370361	411.263947
2908.731934	466.027069
2908.093506	516.857605
2907.455078	516.777710
2906.816406	555.841553
2906.177490	528.359131
2905.538574	532.190613
2904.899658	582.971558
2904.260498	637.648743
2903.621338	582.791199
2902.982178	672.648193
2902.342773	613.891968
2901.703369	539.515869
2901.063721	613.702026
2900.424072	566.707153
2899.784424	535.357666
2899.144531	578.253113
2898.504639	484.407349
2897.864502	539.015076
2897.224365	535.026306
2896.583984	472.468353
2895.943848	499.723877
2895.303223	487.936035
2894.662842	468.346069
2894.021973	511.198639
2893.381348	511.119507
2892.740479	483.732849
2892.099609	499.259827
2891.458496	526.481567
2890.817383	518.601501
2890.176025	538.014465
2889.534668	596.401917
2888.893311	615.796753
2888.251709	596.217163
2887.610107	584.436096
2886.968262	560.971741
2886.326416	654.365601
2885.684570	638.686523
2885.042480	708.676453
2884.400391	728.032776
2883.758057	794.094482
2883.115723	801.755493
2882.473389	778.282776
2881.830811	774.271301
2881.188232	863.626099
2880.545410	832.375427
2879.902588	789.467346
2879.259766	742.684204
2878.616699	863.090759
2877.973633	726.905212
2877.330322	687.926575
2876.687012	695.591919
2876.043457	707.140198
2875.399902	710.915344
2874.756348	637.005676
2874.112549	598.071106
2873.468750	578.563477
2872.824707	644.474121
2872.180664	582.265808
2871.536621	551.126160
2870.892334	570.443481
2870.248047	578.114929
2869.603760	543.110962
2868.958984	612.844482
2868.314453	558.455139
2867.669678	570.001160
2867.024902	639.697937
2866.379883	624.093262
2865.734863	639.499451
2865.089844	643.275391
2864.444580	596.680908
2863.799316	608.210144
2863.153809	581.002319
2862.508301	592.530396
2861.862549	561.461243
2861.216797	495.557831
2860.571045	510.964661
2859.925049	464.441223
2859.279053	406.322968
2858.632813	355.961060
2857.986572	290.140564
2857.340332	363.586395
2856.693848	274.581116
2856.047363	290.005432
2855.400635	251.299011
2854.753906	258.991058
2854.107178	235.761200
2853.460205	243.453262
2852.813232	193.186859
2852.166016	204.746262
2851.518799	196.989380
2850.871338	189.234909
2850.223877	208.512192
2849.576416	200.758316
2848.928711	243.188629
2848.281006	208.415009
2847.633301	227.677307
2846.985352	212.208572
2846.337158	216.033340
2845.688965	269.999695
2845.040771	269.957733
2844.392578	300.763275
2843.743896	319.993225
2843.095459	327.652985
2842.446777	308.331329
2841.798096	389.207794
2841.149170	389.147278
2840.500244	419.905518
2839.851074	466.061157
2839.202148	519.904724
2838.552734	504.421692
2837.903320	496.643372
2837.253906	488.867432
2836.604492	534.976379
2835.954834	457.930145
2835.304932	423.230927
2834.655029	465.481598
2834.005127	430.791962
2833.354980	346.118256
2832.704834	353.754730
2832.054688	338.321442
2831.404297	276.765381
2830.753906	276.722321
2830.103271	230.566055
2829.452637	261.267517
2828.801758	203.603287
2828.150879	180.525757
2827.500000	172.816910
2826.848877	161.270676
2826.197754	168.923935
2825.546387	115.157478
2824.895020	138.167465
2824.243408	172.682449
2823.591797	138.124451
2822.940186	130.430557
2822.288330	107.396675
2821.636475	118.884941
2820.984619	107.363228
2820.332520	130.349335
2819.680176	107.329788
2819.028076	103.480461
2818.375488	103.464348
2817.723145	91.953979
2817.070557	122.586212
2816.417725	91.925331
2815.764893	91.911011
2815.112061	107.212807
2814.458984	84.225510
2813.805908	72.728882
2813.152832	76.544785
2812.499512	68.879570
2811.845947	107.129303
2811.192383	95.636261
2810.538818	103.271057
2809.885010	99.430702
2809.231201	72.649574
2808.577393	84.107445
2807.923340	57.337048
2807.269287	38.218739
2806.614990	80.246841
2805.960693	68.772278
2805.306152	114.602600
2804.651611	76.389816
2803.997070	106.929070
2803.342285	57.274498
2802.687500	57.265564
2802.032471	53.439526
2801.377441	87.779816
2800.722412	87.766121
2800.067139	80.121788
2799.411621	45.776733
2798.756348	41.955460
2798.100586	76.270752
2797.445068	91.510628
2796.789307	76.246956
2796.133301	91.482071
2795.477539	80.034325
2794.821289	68.590141
2794.165283	57.149532
2793.509033	91.424980
2792.852539	76.175591
2792.196045	41.890038
2791.539551	98.997360
2790.882813	87.560921
2790.226074	76.128044
2789.569092	64.698730
2788.912109	68.493843
2788.255127	68.483154
2787.597900	41.844280
2786.940430	45.641178
2786.283203	26.619864
2785.625488	60.835899
2784.968018	95.041252
2784.310303	68.419014
2783.652588	68.408325
2782.994629	60.797901
2782.336426	91.182610
2781.678467	64.577591
2781.020264	113.942650
2780.361816	68.354912
2779.703369	64.547333
2779.044922	26.574160
2778.386230	94.892883
2777.727539	91.082932
2777.068604	79.685112
2776.409668	56.909042
2775.750732	49.313461
2775.091553	53.098503
2774.432373	83.427467
2773.772949	75.831291
2773.113525	98.565269
2772.453857	37.903793
2771.794189	49.267227
2771.134521	49.259525
2770.474609	75.772041
2769.814697	83.336212
2769.154541	68.173508
2768.494385	37.868248
2767.833984	56.793491
2767.173584	105.997932
2766.513184	75.700974
2765.852539	90.826958
2765.191895	49.190239
2764.531006	60.532360
2763.870117	83.218979
2763.209229	56.731335
2762.548096	64.285454
2761.886719	90.741737
2761.225586	71.825966
2760.563965	60.475559
2759.902588	90.699142
2759.240967	117.134727
2758.579102	68.003067
2757.917236	71.769783
2757.255371	37.767658
2756.593262	49.090271
2755.931152	105.716339
2755.269043	64.174873
2754.606689	94.360039
2753.944092	128.309570
2753.281494	109.423378
2752.618896	64.134697
2751.956055	79.212807
2751.293213	101.829086
2750.630371	71.646286
2749.967285	49.013466
2749.303955	71.623848
2748.640625	94.227142
2747.977295	71.601410
2747.313721	79.126007
2746.650146	90.415550
2745.986572	56.500870
2745.322754	101.685631
2744.658691	67.779800
2743.994873	90.358902
2743.330566	109.166573
2742.666504	135.495880
2742.002197	79.026878
2741.337646	90.302284
2740.673096	94.050133
2740.008545	112.842468
2739.343750	82.738174
2738.678955	120.327576
2738.013916	109.029770
2737.348877	116.530792
2736.683594	93.961716
2736.018311	86.431221
2735.353027	105.204124
2734.687500	86.404121
2734.021973	101.415024
2733.356201	78.865982
2732.690430	101.383217
2732.024658	131.402069
2731.358643	71.321365
2730.692383	105.088692
2730.026367	120.082520
2729.359863	142.575623
2728.693604	105.039246
2728.027100	123.776833
2727.360352	142.508530
2726.693604	153.735077
2726.026855	112.471436
2725.359863	112.453789
2724.692871	149.914856
2724.025635	149.891327
2723.358398	138.627716
2722.691162	153.590393
2722.023682	161.057312
2721.355957	187.246552
2720.688477	168.495453
2720.020508	153.493973
2719.352783	190.901550
2718.684814	172.158691
2718.016602	153.421692
2717.348389	160.880417
2716.680176	149.632706
2716.011719	164.570129
2715.343262	153.325348
2714.674561	168.257492
2714.005859	130.846390
2713.337158	130.825836
2712.668213	119.593407
2711.999023	130.784744
2711.329834	153.180908
2710.660645	160.627914
2709.991455	126.988167
2709.321777	156.843094
2708.652344	119.480721
2707.982666	141.861053
2707.312988	89.582382
2706.643066	97.032326
2705.972900	126.868484
2705.302979	123.117706
2704.632813	108.177345
2703.962402	78.323006
2703.291992	96.956100
2702.621582	119.311821
2701.950928	96.925613
2701.280273	119.274315
2700.609375	52.174309
2699.938477	126.689110
2699.267334	74.511284
2698.596191	63.324635
2697.925049	40.968319
2697.253662	81.923752
2696.582031	67.017982
2695.910645	63.284809
2695.239014	74.441002
2694.567139	70.707832
2693.895264	100.463745
2693.223145	111.608818
2692.551270	59.515339
2691.878906	111.573708
2691.206543	92.963455
2690.534180	63.205204
2689.861816	85.499466
2689.189209	66.902100
2688.516357	89.188759
2687.843506	111.468399
2687.170654	81.730629
2686.497559	70.574432
2685.824463	77.991043
2685.151123	103.971687
2684.477783	122.518768
2683.804199	103.938957
2683.130615	77.941940
2682.457031	111.328102
2681.783203	81.627754
2681.109375	96.453972
2680.435303	89.020416
2679.761230	44.503197
2679.086914	51.912220
2678.412598	107.515518
2677.738281	103.791740
2677.063721	118.600441
2676.389160	111.170403
2675.714355	118.563080
2675.039551	88.908302
2674.364502	88.894295
2673.689453	85.176941
2673.014404	92.569046
2672.339111	114.767525
2671.663574	62.927113
2670.988037	59.216187
2670.312500	81.409424
2669.636719	103.595665
2668.960938	107.278595
2668.285156	88.768288
2667.609131	92.452393
2666.932861	88.740303
2666.256592	88.726318
2665.580322	88.712326
2664.903809	103.481400
2664.227295	121.940987
2663.550781	59.113579
2662.874023	62.798275
2662.197021	107.109573
2661.520020	110.785530
2660.843018	84.922180
2660.165771	77.525414
2659.488525	77.513184
2658.811035	81.191475
2658.133545	118.078064
2657.455811	106.991364
2656.778076	88.530609
2656.100342	66.387482
2655.422363	110.628342
2654.744385	103.236824
2654.066162	99.534088
2653.387939	117.947708
2652.709473	114.243805
2652.031006	147.388092
2651.352539	114.207748
2650.673828	84.721405
2649.994873	103.122818
2649.316162	106.788918
2648.636963	95.726669
2647.958008	103.073990
2647.278809	66.251389
2646.599365	110.401543
2645.919922	66.230469
2645.240479	73.577782
2644.560791	80.922783
2643.880859	99.298637
2643.201172	110.314392
2642.520996	77.207878
2641.841064	77.195686
2641.160889	135.989960
2640.480469	58.797176
2639.800049	84.507591
2639.119629	69.799591
2638.438965	80.807808
2637.758301	58.760029
2637.077393	91.798035
2636.396484	102.797554
2635.715332	73.415222
2635.034180	95.424698
2634.353027	77.061615
2633.671631	62.373352
2632.989990	80.705696
2632.308350	69.689354
2631.626709	69.678337
2630.944824	99.000931
2630.262939	54.991821
2629.581055	69.645294
2628.898926	98.953979
2628.216553	65.958885
2627.534180	62.284653
2626.851807	91.580597
2626.169189	47.614376
2625.486572	106.199890
2624.803711	69.568230
2624.120850	109.827202
2623.437988	84.187531
2622.754883	73.194969
2622.071533	91.479240
2621.388184	69.513222
2620.704834	69.502220
2620.021240	51.204060
2619.337646	76.793938
2618.653809	76.781784
2617.969971	65.802544
2617.286133	98.688194
2616.602051	87.708954
2615.917725	65.771301
2615.233398	98.641335
2614.549072	109.584137
2613.864502	94.957878
2613.179932	120.504387
2612.495117	102.229958
2611.810303	73.009834
2611.125488	58.398621
2610.440430	62.038708
2609.755127	54.731369
2609.069824	98.500862
2608.384521	91.190056
2607.698975	113.057755
2607.013428	72.928932
2606.327637	91.146729
2605.641846	69.260544
2604.956055	80.183708
2604.270020	51.017914
2603.583740	94.732544
2602.897461	65.573677
2602.211182	91.060120
2601.524658	87.403862
2600.838135	80.107506
2600.151367	98.298180
2599.464600	83.722214
2598.777832	61.871830
2598.090820	83.695679
2597.403564	72.767311
2596.716309	76.393562
2596.029053	101.841942
2595.341553	65.459435
2594.654053	90.901474
2593.966309	69.074165
2593.278564	87.237740
2592.590820	76.320915
2591.902832	83.576317
2591.214600	83.563065
2590.526367	58.121609
2589.838135	76.272514
2589.149658	87.154755
2588.461182	76.248314
2587.772461	90.757401
2587.083740	116.151047
2586.394775	94.357750
2585.705811	90.714211
2585.016846	94.327812
2584.327637	94.312843
2583.638184	68.909988
2582.948975	54.393990
2582.259277	61.636734
2581.569824	47.126492
2580.879883	86.988945
2580.190186	97.847031
2579.500244	105.078278
2578.810059	90.570343
2578.119873	97.800438
2577.429688	79.676598
2576.739258	76.042854
2576.048584	76.030777
2575.358154	68.778831
2574.667236	57.909817
2573.976563	39.806675
2573.285645	75.982491
2572.594482	72.352783
2571.903320	90.426620
2571.212158	72.329803
2570.520752	75.934227
2569.829102	112.075577
2569.137451	97.598701
2568.445801	108.425774
2567.753906	79.499603
2567.062012	86.713058
2566.370117	90.311745
2565.677979	93.909294
2564.985596	72.226433
2564.293213	54.161217
2563.600830	97.474693
2562.908203	64.972801
2562.215332	115.488838
2561.522705	68.560600
2560.829590	68.549698
2560.136719	97.397240
2559.443604	90.168289
2558.750244	82.941635
2558.056885	72.111694
2557.363525	115.360367
2556.669922	79.297638
2555.976074	93.700485
2555.282227	32.429626
2554.588379	75.657089
2553.894287	32.419308
2553.200195	61.226730
2552.505859	72.019989
2551.811523	111.613228
2551.117188	97.196053
2550.422607	97.180588
2549.727783	46.783207
2549.032959	61.168304
2548.338135	86.341515
2547.643066	97.118744
2546.947998	50.349854
2546.252686	82.704445
2545.557373	86.286560
2544.861816	61.109917
2544.166260	79.070831
2543.470703	107.806694
2542.774902	89.824608
2542.078857	79.033073
2541.382813	82.612328
2540.686768	75.416634
2539.990479	78.995323
2539.294189	89.753120
2538.597656	86.149269
2537.901123	86.135551
2537.204346	82.533417
2536.507568	60.993244
2535.810791	64.570793
2535.113770	100.427460
2534.416504	89.653091
2533.719238	86.053253
2533.021973	93.209503
2532.324463	93.194649
2531.626953	89.595963
2530.929199	89.581688
2530.231445	89.567413
2529.533447	78.806755
2528.835449	111.028191
2528.137451	35.809837
2527.439209	103.831970
2526.740723	89.496048
2526.042236	85.902512
2525.343750	103.782318
2524.645020	85.875122
2523.946289	89.438988
2523.247314	78.693764
2522.548340	96.563309
2521.849121	100.123756
2521.149902	89.381950
2520.450684	92.942406
2519.751221	96.501717
2519.051514	107.207031
2518.351807	89.324944
2517.652100	117.890114
2516.952148	110.727585
2516.252197	85.710907
2515.552002	92.838669
2514.851807	103.534302
2514.151367	85.669884
2513.450928	107.070267
2512.750244	78.505669
2512.049561	71.357399
2511.348877	114.153610
2510.647949	96.301735
2509.946777	92.720207
2509.245605	82.008629
2508.544434	67.735443
2507.843018	124.755890
2507.141602	67.713814
2506.439941	78.392952
2505.738281	96.194168
2505.036377	96.178810
2504.334473	103.286667
2503.632568	78.342888
2502.930420	81.890846
2502.228027	106.797089
2501.525635	88.983360
2500.823242	92.527908
2500.120605	71.163948
2499.417969	106.728867
2498.715088	78.255333
2498.012207	78.242828
2497.309082	56.894783
2496.605957	95.994598
2495.902588	127.972351
2495.199219	120.843460
2494.495605	99.502235
2493.791992	110.145584
2493.088379	110.127983
2492.384521	85.246742
2491.680664	63.924835
2490.976563	71.016243
2490.272461	60.354156
2489.568115	117.139336
2488.863770	110.022385
2488.159180	99.359169
2487.454590	99.343277
2486.749756	113.517021
2486.044922	95.764671
2485.339844	117.026985
2484.634766	113.462563
2483.929688	88.628448
2483.224365	67.346848
2482.519043	85.056091
2481.813477	74.412178
2481.107666	88.571747
2480.402100	88.557579
2479.696045	81.459938
2478.990234	88.529236
2478.284180	56.649647
2477.577881	106.201088
2476.871582	95.565681
2476.165039	81.394775
2475.458496	99.073433
2474.751953	84.906487
2474.045166	113.190529
2473.338379	102.562500
2472.631348	95.473930
2471.924072	106.065163
2471.217041	98.978302
2470.509521	102.496826
2469.802246	84.811378
2469.094482	95.397522
2468.386963	77.718864
2467.679199	88.302750
2466.971191	67.099335
2466.263184	116.522285
2465.554932	70.608253
2464.846680	88.246185
2464.138428	98.819893
2463.429932	70.574326
2462.721436	105.844528
2462.012695	95.244812
2461.303955	91.702530
2460.594971	112.846565
2459.885986	105.776703
2459.176758	102.234421
2458.467529	95.168518
2457.758057	119.822632
2457.048584	95.138008
2456.338867	119.784218
2455.629150	84.540009
2454.919434	73.960648
2454.209473	70.427422
2453.499512	102.103386
2452.789307	123.208466
2452.078857	109.109993
2451.368408	95.016045
2450.657959	112.593552
2449.947266	133.683395
2449.236572	91.452919
2448.525879	109.022530
2447.814697	109.005035
2447.103760	130.081909
2446.392578	108.970070
2445.681152	98.408783
2444.969727	87.850891
2444.258301	87.836792
2443.546631	129.977585
2442.834717	105.370323
2442.122803	84.282730
2441.410889	77.246773
2440.698730	105.319603
2439.986572	105.302696
2439.274170	91.247688
2438.561768	91.233040
2437.849121	80.693192
2437.136475	126.282112
2436.423584	129.769104
2435.710693	87.667747
2434.997803	101.678261
2434.284424	94.650764
2433.571289	84.120499
2432.857910	77.098076
2432.144287	73.581795
2431.430908	94.589973
2430.717041	147.116318
2430.003174	84.052963
2429.289307	112.052620
2428.575195	87.527046
2427.861084	101.515060
2427.146729	97.998787
2426.432373	97.983040
2425.717773	139.953278
2425.003174	62.968857
2424.288330	101.433517
2423.573486	104.914360
2422.858643	87.414581
2422.143555	76.912468
2421.428223	111.854698
2420.712891	101.352028
2419.997559	97.841393
2419.281982	104.813210
2418.566162	136.235260
2417.850586	125.735413
2417.134521	115.238922
2416.418457	83.796654
2415.702393	94.256073
2414.986084	94.240913
2414.269775	108.185127
2413.553223	94.210594
2412.836670	94.195442
2412.120117	132.550034
2411.403076	94.165138
2410.686279	87.175919
2409.969238	97.621315
2409.251953	139.436584
2408.534668	132.443436
2407.817383	80.150238
2407.099854	108.011192
2406.382080	132.379501
2405.664307	118.425758
2404.946533	121.889244
2404.228516	142.761566
2403.510498	111.405724
2402.792236	135.753860
2402.073975	135.732010
2401.355469	107.872177
2400.636963	156.563431
2399.918213	111.316063
2399.199463	118.254272
2398.480469	100.847694
2397.761475	66.061989
2397.042480	104.291603
2396.323242	76.468193
2395.603760	90.356941
2394.884277	86.867676
2394.164795	111.172714
2393.445068	104.207626
2392.725098	79.879646
2392.005127	86.811707
2391.285156	90.269630
2390.564941	142.325333
2389.844727	152.714752
2389.124268	100.636688
2388.403809	83.272110
2387.683105	86.727806
2386.962402	90.182373
2386.241455	93.635834
2385.520508	83.218437
2384.799316	128.274399
2384.078125	79.725288
2383.356689	93.575462
2382.635254	107.421173
2381.913818	100.474571
2381.192139	148.955505
2380.470215	145.467957
2379.748291	96.962997
2379.026367	124.646606
2378.304199	93.469879
2377.581787	79.609642
2376.859375	100.361183
2376.136963	110.725510
2375.414307	121.086487
2374.691650	100.312614
2373.968750	114.130424
2373.245850	89.906425
2372.522705	117.550972
2371.799316	79.506943
2371.076172	114.056770
2370.352783	86.392693
2369.629150	89.833900
2368.905518	100.183174
2368.181641	151.977524
2367.457764	93.243881
2366.733643	124.305099
2366.009521	89.761414
2365.285400	100.102333
2364.561035	79.378685
2363.836426	117.323456
2363.111816	110.404243
2362.387207	93.138535
2361.662354	137.960724
2360.937256	120.696136
2360.212158	137.916168
2359.487061	117.209801
2358.761719	141.318405
2358.036377	144.741806
2357.310791	89.587593
2356.584961	110.243835
2355.859375	82.669518
2355.133301	113.652214
2354.407471	106.746948
2353.681152	110.172592
2352.955078	127.366470
2352.228516	113.578758
2351.502197	103.236725
2350.775635	110.101372
2350.048828	120.403908
2349.322021	120.384445
2348.594971	127.242981
2347.867920	110.030190
2347.140869	137.515503
2346.413330	109.994606
2345.686035	120.287148
2344.958496	113.395256
2344.230713	103.069923
2343.502930	133.969223
2342.775146	99.602028
2342.047119	96.151917
2341.319092	113.303574
2340.590820	123.583900
2339.862305	130.428574
2339.133789	96.089714
2338.405273	99.505379
2337.676514	113.211937
2336.947754	78.892525
2336.218750	99.457085
2335.489746	126.872978
2334.760498	113.138664
2334.031250	116.548241
2333.301758	106.247375
2332.572266	99.376617
2331.842529	99.360527
2331.112793	95.918770
2330.382813	133.579514
2329.652832	130.133316
2328.922607	136.960266
2328.192383	133.514633
2327.462158	147.184601
2326.731689	109.514984
2326.000977	136.871552
2325.270264	95.794571
2324.539307	88.937691
2323.808350	133.384933
2323.077393	136.782883
2322.346191	102.570549
2321.614746	102.553925
2320.883301	143.552231
2320.151855	119.607475
2319.420166	119.588097
2318.688232	92.238724
2317.956299	136.627808
2317.224365	140.020813
2316.492188	116.095993
2315.760010	105.835075
2315.027588	122.885323
2314.295166	129.691254
2313.562500	119.433105
2312.829590	119.413742
2312.096924	95.515503
2311.363770	133.017883
2310.630615	115.945496
2309.897461	92.059433
2309.164063	109.089783
2308.430664	102.255081
2307.697021	143.133896
2306.963379	139.703278
2306.229492	95.391640
2305.495605	115.813911
2304.761719	112.389381
2304.027344	153.233383
2303.293213	115.757553
2302.558838	119.142845
2301.824219	98.702339
2301.089600	115.701202
2300.354736	153.109100
2299.619873	146.280502
2298.885010	119.046196
2298.149658	81.618423
2297.414551	105.406685
2296.679199	108.789238
2295.943604	132.565353
2295.208008	135.942398
2294.472412	135.920319
2293.736572	91.731316
2293.000488	112.097847
2292.264404	122.268700
2291.528320	132.436249
2290.791992	115.438492
2290.055420	125.603836
2289.318848	118.795135
2288.582275	128.956619
2287.845459	84.826103
2287.108398	105.167274
2286.371582	115.326012
2285.634277	91.567543
2284.896973	122.070213
2284.159668	125.440666
2283.422119	122.030540
2282.684570	142.345825
2281.946777	108.436340
2281.208740	186.344666
2280.470703	121.951225
2279.732666	118.544418
2278.994385	104.979416
2278.256104	121.891754
2277.517578	98.174614
2276.779053	94.773872
2276.040283	121.832306
2275.301514	125.196175
2274.562500	125.175812
2273.823486	128.538040
2273.084229	142.045242
2272.344971	118.351784
2271.605469	121.713463
2270.865967	114.932907
2270.126221	121.673866
2269.386475	135.171188
2268.646484	145.285385
2267.906494	128.370850
2267.166260	87.818390
2266.426025	118.197823
2265.685547	124.931656
2264.945068	101.279449
2264.204346	91.136665
2263.463623	114.746010
2262.722656	118.101669
2261.981689	168.689194
2261.240723	124.809685
2260.499268	121.416679
2259.758057	121.396912
2259.016602	144.978256
2258.274902	165.180878
2257.533203	141.560547
2256.791260	121.317856
2256.049316	138.145050
2255.307129	117.909500
2254.564941	121.258583
2253.822754	141.445313
2253.080322	121.219086
2252.337646	138.032578
2251.594971	164.938889
2250.852051	168.277557
2250.109131	111.045090
2249.366211	168.222717
2248.623047	127.828438
2247.879639	107.627457
2247.136230	124.423965
2246.392578	144.577255
2245.648926	117.659973
2244.905273	107.557297
2244.161377	120.982239
2243.417236	100.802094
2242.673096	107.504700
2241.928955	127.641022
2241.184570	157.846039
2240.439941	110.810005
2239.695313	141.007919
2238.950439	130.914566
2238.205566	120.824501
2237.460693	130.871857
2236.715576	147.626221
2235.970215	140.892960
2235.224854	124.099731
2234.479492	117.372490
2233.733887	127.412193
2232.988037	107.276970
2232.242188	113.963188
2231.496338	137.403763
2230.750244	127.329048
2230.003906	123.958054
2229.257568	150.735184
2228.511230	150.710587
2227.764648	147.337402
2227.017822	143.965332
2226.270996	127.204399
2225.523926	130.530579
2224.776855	123.816475
2224.029785	147.217178
2223.282471	117.085449
2222.534912	110.376823
2221.787354	96.981972
2221.039795	140.433716
2220.291992	127.038322
2219.543945	137.045273
2218.795898	130.338852
2218.047852	167.073792
2217.299561	120.273476
2216.551025	116.913437
2215.802490	156.972397
2215.053955	146.928864
2214.305176	130.211121
2213.556152	140.204453
2212.807129	126.830917
2212.058105	133.484406
2211.308838	103.433510
2210.559326	130.104752
2209.809814	116.741592
2209.060303	126.727295
2208.310547	150.047256
2207.560547	143.355057
2206.810547	139.998322
2206.060303	153.306427
2205.310059	99.966103
2204.559814	106.613068
2203.809326	126.582314
2203.058594	126.561615
2202.307861	143.191040
2201.557129	129.849701
2200.806152	113.183777
2200.054932	146.449158
2199.303711	119.802444
2198.552246	96.491730
2197.800781	109.782974
2197.049316	133.048492
2196.297607	133.026718
2195.545654	139.655197
2194.793701	119.684868
2194.041504	159.553711
2193.289307	139.586639
2192.537109	129.594955
2191.784668	179.409790
2191.031982	129.552521
2190.279297	162.744476
2189.526367	152.755508
2188.773438	102.927078
2188.020508	156.025177
2187.267090	139.403915
2186.513916	122.788101
2185.760498	159.266586
2185.006836	129.382904
2184.253174	152.580490
2183.499268	135.973373
2182.745361	135.951096
2181.991211	162.451523
2181.237061	165.739700
2180.482666	139.198532
2179.728271	145.803146
2178.973877	145.779251
2178.218994	175.568970
2177.464355	165.603958
2176.709229	178.822952
2175.954346	142.372726
2175.198975	135.728485
2174.443848	115.846786
2173.688232	145.612091
2172.932861	148.897034
2172.177002	129.022934
2171.421387	135.617264
2170.665283	178.588562
2169.909424	142.186096
2169.153076	161.999451
2168.396729	102.472641
2167.640381	105.760857
2166.883789	138.788361
2166.127197	132.157715
2165.370361	158.563232
2164.613525	145.325790
2163.856445	122.185730
2163.099365	132.070999
2162.342041	135.350571
2161.584473	115.524208
2160.826904	135.306152
2160.069336	128.684738
2159.311523	118.766411
2158.553711	145.135117
2157.795654	118.727425
2157.037354	118.707939
2156.279053	154.954376
2155.520752	115.372604
2154.762207	168.086777
2154.003662	171.354446
2153.244873	171.326309
2152.485840	171.298187
2151.726807	141.627167
2150.967773	148.190125
2150.208252	134.995499
2149.448975	151.433487
2148.689453	131.659668
2147.929688	134.928986
2147.169922	151.358871
2146.410156	194.102310
2145.650146	144.730484
2144.889893	171.017014
2144.129639	131.529938
2143.369141	157.809982
2142.608643	128.199539
2141.847900	134.751724
2141.087158	151.160019
2140.326416	160.991821
2139.565186	154.395340
2138.804199	118.240822
2138.042725	144.492798
2137.281494	144.469040
2136.519775	121.465363
2135.758301	128.010010
2134.996338	190.342545
2134.234619	154.217743
2133.472412	137.788925
2132.710449	127.925827
2131.947998	154.141663
2131.185547	167.232590
2130.423096	150.812424
2129.660400	147.509628
2128.897705	163.872620
2128.134766	154.014923
2127.371826	199.858826
2126.608643	183.446762
2125.845215	163.764801
2125.081787	137.539795
2124.318359	166.985123
2123.554688	134.220840
2122.790771	111.286774
2122.026855	127.631462
2121.262939	137.426636
2120.498779	196.291458
2119.734375	153.736328
2118.969971	156.981461
2118.205322	147.145889
2117.440674	143.852295
2116.676025	140.559769
2115.911133	153.609802
2115.145996	169.923279
2114.380859	143.757553
2113.615479	147.000549
2112.850098	146.976334
2112.084473	153.483337
2111.318848	150.192978
2110.552979	143.639191
2109.787109	153.407486
2109.020996	159.909119
2108.254883	179.460251
2107.488525	156.594040
2106.722168	153.306396
2105.955566	130.452026
2105.188965	172.820450
2104.422119	149.970383
2103.655029	159.724731
2102.887939	172.735001
2102.120850	185.740982
2101.353516	149.871506
2100.585938	153.104340
2099.818359	172.621109
2099.050781	136.771530
2098.282959	172.564178
2097.514893	136.726425
2096.746826	169.252411
2095.978760	172.478821
2095.210449	178.957932
2094.441895	159.408936
2093.673340	156.129944
2092.904541	188.625885
2092.135742	139.820251
2091.366699	169.057068
2090.597656	165.778610
2089.828369	133.251007
2089.059082	178.721848
2088.289551	162.447586
2087.520020	126.688210
2086.750244	181.881256
2085.980469	149.377792
2085.210449	159.093552
2084.440186	107.126953
2083.670166	188.252640
2082.899658	139.543579
2082.129150	139.520538
2081.358643	165.450516
2080.587891	204.346298
2079.816895	145.937531
2079.045898	139.428391
2078.274902	181.551178
2077.503662	152.348129
2076.732178	155.563889
2075.960693	139.336288
2075.188965	171.711700
2074.417236	200.837112
2073.645264	139.267242
2072.873291	145.720703
2072.101074	145.696625
2071.328857	155.384048
2070.556396	158.595001
2069.783936	168.277084
2069.011230	119.715828
2068.238525	174.691513
2067.465576	158.490173
2066.692627	158.463974
2065.919434	132.570374
2065.145996	155.178680
2064.372559	164.850082
2063.599121	161.591003
2062.825439	210.033569
2062.051514	177.691330
2061.277588	145.359772
2060.503662	138.876358
2059.729248	132.395096
2058.955078	184.031021
2058.180664	161.404007
2057.406006	196.880325
2056.631348	193.620728
2055.856445	187.135742
2055.081543	193.556671
2054.306396	135.467239
2053.531250	154.794083
2052.755859	174.114532
2051.980225	145.071426
2051.204590	199.843094
2050.428955	157.914368
2049.653076	186.888107
2048.877197	193.300522
2048.101074	183.605087
2047.324707	170.692261
2046.548340	189.984451
2045.771851	183.513901
2044.995239	167.388474
2044.218506	154.486847
2043.441528	164.115082
2042.664551	189.827179
2041.887329	170.494476
2041.110107	199.413330
2040.332642	157.574753
2039.555176	160.763916
2038.777466	192.884750
2037.999634	160.710648
2037.221802	189.607147
2036.443726	186.362579
2035.665527	192.756927
2034.887207	192.724976
2034.108765	202.327698
2033.330200	163.761932
2032.551514	179.787216
2031.772705	166.917603
2030.993774	176.518188
2030.214600	170.071152
2029.435425	157.209518
2028.656128	179.638229
2027.876587	198.852203
2027.097046	166.751617
2026.317261	163.517731
2025.537476	144.256424
2024.757446	201.925491
2023.977295	221.119797
2023.197021	205.062607
2022.416626	150.567871
2021.636230	195.385452
2020.855591	160.125443
2020.074707	176.108749
2019.293823	198.489655
2018.512817	182.452148
2017.731689	185.622253
2016.950439	169.592178
2016.168945	195.158600
2015.387451	201.523788
2014.605713	191.895554
2013.823975	230.236435
2013.041992	230.198212
2012.260010	201.389999
2011.477783	188.572021
2010.695435	172.562683
2009.912964	207.679840
2009.130371	166.116287
2008.347656	185.252777
2007.564819	185.222000
2006.781860	162.840576
2005.998779	159.621109
2005.215576	204.281067
2004.432129	181.907608
2003.648682	204.213196
2002.864990	188.227768
2002.081299	207.335114
2001.297363	200.922180
2000.513428	242.342041
1999.729248	213.608124
1998.944946	207.197327
1998.160522	203.975769
1997.375977	203.941864
1996.591309	197.535843
1995.806519	187.946396
1995.021606	222.950180
1994.236572	206.990753
1993.451416	206.956329
1992.666016	206.921921
1991.880615	210.070389
1991.094971	213.217819
1990.309326	203.636871
1989.523438	203.603012
1988.737549	203.569138
1987.951416	225.796951
1987.165161	222.579681
1986.378784	197.109207
1985.592285	209.791016
1984.805664	171.618637
1984.018921	219.253983
1983.232056	212.863373
1982.444946	187.415649
1981.657837	177.856445
1980.870605	215.932587
1980.083130	222.246552
1979.295654	190.465332
1978.507935	177.738052
1977.720093	209.442123
1976.932129	234.789948
1976.144165	215.716995
1975.355957	241.055328
1974.567627	212.473907
1973.779053	193.414185
1972.990479	202.892563
1972.201782	209.198105
1971.412964	215.501541
1970.623901	174.273682
1969.834839	221.765930
1969.045532	218.561417
1968.256226	224.859070
1967.466675	234.321106
1966.677002	193.124405
1965.887207	202.588562
1965.097290	212.049561
1964.307251	196.192261
1963.517090	249.945251
1962.726807	224.596909
1961.936401	227.722275
1961.145874	224.522034
1960.355103	202.352325
1959.564331	189.673676
1958.773315	189.642044
1957.982178	202.251129
1957.191040	214.855988
1956.399658	243.252243
1955.608154	277.956207
1954.816528	208.432373
1954.024780	221.027771
1953.232910	211.519867
1952.440918	205.171616
1951.648682	217.761230
1950.856445	220.880325
1950.063965	246.082733
1949.271484	220.806625
1948.478760	242.846771
1947.685913	255.419556
1946.893066	217.543304
1946.099976	252.182037
1945.306763	245.836441
1944.513428	223.736847
1943.719971	252.055786
1942.926270	211.061478
1942.132568	248.821991
1941.338745	245.631317
1940.544678	283.373444
1939.750610	236.105103
1938.956299	239.213211
1938.161865	258.055359
1937.367310	251.719299
1936.572632	276.844971
1935.777832	248.489777
1934.982910	248.448273
1934.187866	245.262375
1933.392700	264.084595
1932.597290	267.183807
1931.801880	251.425095
1931.006226	204.248764
1930.210571	238.774033
1929.414673	276.428986
1928.618652	222.990662
1927.822510	235.514145
1927.026245	251.173096
1926.229858	276.244232
1925.433350	279.336670
1924.636719	254.185257
1923.839844	260.417877
1923.042969	276.059540
1922.245850	263.467316
1921.448730	275.967255
1920.651367	235.160019
1919.853882	253.930344
1919.056274	231.946960
1918.258545	241.309845
1917.460693	238.136108
1916.662720	300.753174
1915.864624	269.379669
1915.066284	256.807404
1914.267944	253.633163
1913.469360	237.936981
1912.670776	262.938965
1911.871948	259.765259
1911.072998	272.238525
1910.273926	290.964874
1909.474731	228.353561
1908.675415	203.294479
1907.875977	287.691711
1907.076294	278.263885
1906.276611	243.830887
1905.476807	321.927887
1904.676758	287.499115
1903.876587	249.957352
1903.076294	278.031006
1902.275879	231.133133
1901.475342	243.586014
1900.674683	243.545212
1899.873901	252.869980
1899.072998	259.070282
1898.271851	296.476532
1897.470703	287.066040
1896.669312	290.137695
1895.867920	224.585098
1895.066284	277.565613
1894.264526	283.755493
1893.462646	268.119598
1892.660645	277.426086
1891.858521	336.595459
1891.056152	292.913605
1890.253784	286.633362
1889.451172	302.160583
1888.648560	305.224487
1887.845703	277.147186
1887.042725	298.895142
1886.239624	292.619110
1885.436401	242.770874
1884.633057	292.520966
1883.829590	233.355255
1883.025879	295.533752
1882.222168	311.035980
1881.418213	261.226379
1880.614258	267.401215
1879.810059	279.791534
1879.005737	292.177673
1878.201294	261.051147
1877.396729	313.830261
1876.592041	282.710510
1875.787231	304.406372
1874.982178	313.672272
1874.177124	285.673340
1873.371826	282.520752
1872.566406	288.681549
1871.760986	270.011597
1870.955322	328.924408
1870.149536	279.228577
1869.343506	303.997833
1868.537476	297.743805
1867.731323	353.511383
1866.924927	285.241974
1866.118530	275.894257
1865.311890	285.146179
1864.505127	285.098297
1863.698242	281.952026
1862.891235	350.057434
1862.084106	328.317291
1861.276855	315.874878
1860.469482	334.399567
1859.661865	309.577209
1858.854126	321.906189
1858.046387	293.999512
1857.238403	312.515381
1856.430298	334.118683
1855.622070	337.155701
1854.813721	315.450470
1854.005249	256.646942
1853.196533	315.344421
1852.387817	324.564697
1851.578857	315.238403
1850.769775	299.735138
1849.960693	324.401001
1849.151367	281.100250
1848.341919	327.380402
1847.532227	370.556976
1846.722534	314.920471
1845.912720	354.997650
1845.102661	317.900940
1844.292603	342.534637
1843.482300	265.342560
1842.671875	336.249695
1841.861328	333.108765
1841.050659	326.885071
1840.239868	332.996674
1839.428833	314.443939
1838.617798	342.131378
1837.806519	379.054749
1836.995117	357.422363
1836.183716	369.685028
1835.372070	317.259583
1834.560303	298.728119
1833.748291	304.836151
1832.936279	310.942078
1832.124146	286.264801
1831.311768	307.759766
1830.499390	301.553802
1829.686768	283.043640
1828.874023	298.376190
1828.061157	335.232208
1827.248169	316.725708
1826.434937	347.417236
1825.621704	316.618988
1824.808228	368.814362
1823.994751	344.168732
1823.181030	325.676239
1822.367188	347.124664
1821.553223	337.852020
1820.739136	371.574585
1819.924927	343.878845
1819.110474	349.960541
1818.296021	303.861847
1817.481323	319.154602
1816.666626	300.691132
1815.851685	303.708191
1815.036621	383.405304
1814.221436	309.739227
1813.406006	346.481506
1812.590576	367.882904
1811.774902	346.364655
1810.959229	340.176910
1810.143311	303.349854
1809.327271	321.680420
1808.511108	318.563049
1807.694824	339.947449
1806.878418	373.572876
1806.061768	345.955841
1805.245117	330.592285
1804.428223	397.867981
1803.611206	361.080780
1802.794067	351.841370
1801.976807	348.722992
1801.159424	351.722595
1800.341919	348.605286
1799.524170	385.235535
1798.706421	388.227417
1797.888428	339.259583
1797.070313	388.096313
1796.252075	369.698639
1795.433716	360.471649
1794.615234	384.845428
1793.796509	375.618988
1792.977783	369.448944
1792.158813	372.439331
1791.339844	372.376404
1790.520630	350.951263
1789.701294	387.506775
1788.881714	402.694916
1788.062134	375.175018
1787.242432	378.161316
1786.422485	335.408997
1785.602417	338.400970
1784.782349	353.584503
1783.962036	387.048615
1783.141479	335.182312
1782.320923	347.312042
1781.500244	356.391571
1780.679321	392.878113
1779.858398	344.090851
1779.037231	322.720917
1778.215942	350.062561
1777.394531	374.351410
1776.572998	374.288116
1775.751221	389.437195
1774.929443	361.993652
1774.107422	380.181122
1773.285278	352.748383
1772.463013	364.850403
1771.640625	373.908386
1770.818115	373.845123
1769.995483	346.431976
1769.172607	388.910431
1768.349731	328.087646
1767.526611	346.256134
1766.703369	346.197540
1765.880005	385.610931
1765.056519	358.223511
1764.232910	382.445099
1763.409058	355.067474
1762.585083	412.658142
1761.761108	394.385834
1760.936890	424.651306
1760.112549	391.219574
1759.288086	372.960175
1758.463379	406.245514
1757.638672	409.207886
1756.813721	424.291840
1755.988647	375.737701
1755.163574	372.644409
1754.338257	433.163605
1753.512695	420.975800
1752.687134	408.792114
1751.861328	399.640137
1751.035522	405.626526
1750.209473	435.823303
1749.383301	405.489075
1748.557007	387.267181
1747.730591	381.151520
1746.903931	390.160431
1746.077271	387.070282
1745.250366	447.474152
1744.423340	405.076843
1743.596313	377.806122
1742.768921	359.610443
1741.941528	419.977936
1741.114014	465.220367
1740.286255	419.835510
1739.458374	398.625092
1738.630493	404.596222
1737.802368	404.527588
1736.973999	401.440613
1736.145630	383.265472
1735.317139	404.321747
1734.488403	386.152252
1733.659546	392.119324
1732.830566	431.258087
1732.001465	349.772369
1731.172241	431.111725
1730.342896	425.010040
1729.513306	397.814209
1728.683594	388.706970
1727.853882	412.742737
1727.023926	424.721527
1726.193726	394.532440
1725.363525	406.510193
1724.533203	448.590607
1723.702637	460.555084
1722.871948	457.467224
1722.041138	448.362122
1721.210205	406.165131
1720.379150	400.079895
1719.547974	448.133667
1718.716553	405.958191
1717.885010	414.908966
1717.053467	423.856720
1716.221558	456.845917
1715.389648	453.763214
1714.557617	405.613403
1713.725342	396.532379
1712.893066	375.440338
1712.060547	411.412659
1711.227905	453.377777
1710.395142	519.344482
1709.562256	489.241394
1708.729126	408.132019
1707.895874	381.058472
1707.062622	395.993439
1706.229126	413.922760
1705.395508	431.845947
1704.561646	407.785126
1703.727783	419.707428
1702.893677	467.594452
1702.059570	455.527344
1701.225220	422.489655
1700.390747	422.417786
1699.556030	407.369110
1698.721313	431.258636
1697.886353	443.162598
1697.051392	437.099548
1696.216187	434.031830
1695.380859	508.778290
1694.545410	448.845612
1693.709717	427.826660
1692.874023	448.692841
1692.038086	451.607239
1691.202026	505.355164
1690.365845	427.535400
1689.529541	448.387360
1688.692993	391.524963
1687.856445	451.222900
1687.019653	484.011017
1686.182739	397.299377
1685.345703	427.098755
1684.508545	468.832764
1683.671143	438.896027
1682.833740	456.732330
1681.996094	426.807831
1681.158325	495.370819
1680.320435	411.744141
1679.482422	525.033447
1678.644287	501.082916
1677.805908	456.265594
1676.967407	384.628967
1676.128784	459.091187
1675.290039	461.993530
1674.451172	402.312897
1673.612183	458.856445
1672.772949	467.715485
1671.933594	506.357147
1671.094116	402.038605
1670.254517	458.543610
1669.414795	479.304749
1668.574829	422.668732
1667.734863	488.069366
1666.894653	490.961639
1666.054321	437.327576
1665.213867	472.947113
1664.373169	455.022400
1663.532471	490.626709
1662.691528	508.380920
1661.850464	472.624420
1661.009277	442.824036
1660.167969	469.491669
1659.326538	415.934265
1658.484863	493.095032
1657.643066	475.191193
1656.801147	427.599091
1655.959106	480.966858
1655.116943	451.200500
1654.274658	504.545990
1653.432129	507.427246
1652.589478	492.506073
1651.746704	471.657196
1650.903809	489.372009
1650.060791	477.426880
1649.217529	480.310211
1648.374146	474.299438
1647.530640	471.254547
1646.687012	423.760315
1645.843262	462.204987
1644.999390	497.674164
1644.155273	450.199707
1643.311035	488.620117
1642.466675	467.810822
1641.622192	423.326050
1640.777588	485.409821
1639.932739	485.326874
1639.087769	455.655853
1638.242798	452.619690
1637.397461	490.993591
1636.552124	464.294067
1635.706665	464.214691
1634.860962	487.785522
1634.015137	467.011719
1633.169189	452.155548
1632.323120	487.535339
1631.476929	487.451935
1630.630493	493.276062
1629.783936	451.846283
1628.937256	528.540161
1628.090454	457.596161
1627.243530	472.276520
1626.396484	507.610382
1625.549194	466.213470
1624.701782	460.233276
1623.854248	436.556854
1623.006592	454.177338
1622.158691	462.945709
1621.310791	465.814667
1620.462646	436.258026
1619.614380	471.549561
1618.765991	480.308868
1617.917358	471.388123
1617.068726	503.709808
1616.219849	474.171875
1615.370850	518.260620
1614.521729	488.730286
1613.672363	485.702911
1612.822998	503.278625
1611.973389	488.479187
1611.123657	488.395508
1610.273804	508.903320
1609.423828	470.581390
1608.573608	452.856995
1607.723389	479.240509
1606.872925	482.098022
1606.022339	479.076294
1605.171509	496.625854
1604.320679	531.798096
1603.469604	490.580414
1602.618408	475.810822
1601.767090	534.461243
1600.915649	531.433533
1600.064087	463.823761
1599.212280	542.991699
1598.360352	495.945190
1597.508301	487.057892
1596.656128	536.845215
1595.803833	519.154663
1594.951294	521.998230
1594.098633	501.384186
1593.245850	507.161316
1592.392944	466.039398
1591.539795	512.848450
1590.686646	527.410767
1589.833252	489.236023
1588.979736	495.010193
1588.126099	512.496521
1587.272217	477.272003
1586.418335	509.393097
1585.564209	529.794983
1584.709961	509.218231
1583.855591	456.462128
1583.000977	471.011444
1582.146362	479.705688
1581.291504	511.793182
1580.436523	473.692902
1579.581421	520.388000
1578.726074	485.222351
1577.870605	546.512024
1577.015137	473.367584
1576.159424	505.423004
1575.303467	441.073792
1574.447510	511.090424
1573.591309	548.962830
1572.734985	513.834351
1571.878540	487.474945
1571.021973	475.717133
1570.165161	504.815460
1569.308350	542.656311
1568.451294	527.978027
1567.594116	548.302795
1566.736694	510.300507
1565.879272	501.466278
1565.021606	486.805084
1564.163818	498.379364
1563.305908	483.723694
1562.447876	492.381012
1561.589600	501.035339
1560.731201	524.249146
1559.872681	521.246948
1559.014038	489.130890
1558.155273	529.800659
1557.296265	494.783630
1556.437134	558.718323
1555.577881	500.432373
1554.718506	471.256378
1553.859009	506.077179
1552.999268	517.622070
1552.139404	534.977905
1551.279419	485.467041
1550.419312	528.980835
1549.558960	499.829895
1548.698608	505.554840
1547.838013	531.612671
1546.977173	528.616699
1546.116333	505.293762
1545.255249	505.206787
1544.394165	554.470581
1543.532837	592.107422
1542.671265	487.533905
1541.809692	542.578247
1540.947876	545.385742
1540.085938	510.485962
1539.223877	513.298035
1538.361694	562.500916
1537.499268	516.020142
1536.636841	501.438812
1535.774170	562.210205
1534.911377	509.958496
1534.048340	495.385651
1533.185303	579.298584
1532.322021	547.342834
1531.458618	590.680908
1530.594971	561.629089
1529.731323	512.325867
1528.867432	555.647522
1528.003418	558.445190
1527.139282	514.953918
1526.275024	584.285156
1525.410522	552.372375
1524.545898	532.036621
1523.681152	552.181885
1522.816284	534.743591
1521.951172	563.551453
1521.086060	566.343750
1520.220703	525.799927
1519.355225	514.155151
1518.489502	505.402405
1517.623779	528.415344
1516.757813	519.663086
1515.891724	513.800354
1515.025513	519.483765
1514.159058	519.394104
1513.292480	513.534424
1512.425781	501.907654
1511.558960	527.777283
1510.692017	524.802612
1509.824829	498.764709
1508.957520	539.034119
1508.090088	544.705078
1507.222534	535.966431
1506.354736	504.182404
1505.486938	544.422974
1504.618896	550.088989
1503.750610	552.873535
1502.882324	578.689514
1502.013794	564.196777
1501.145142	541.074829
1500.276367	480.552582
1499.407471	566.781433
1498.538330	595.449158
1497.669067	494.683868
1496.799683	554.985413
1495.930176	572.139954
1495.060547	520.298645
1494.190674	540.327271
1493.320679	586.211182
1492.450562	540.140442
1491.580200	540.047058
1490.709717	551.442078
1489.839233	559.961548
1488.968384	531.153687
1488.097534	591.344543
1487.226440	568.281372
1486.355347	585.400757
1485.483887	530.786316
1484.612427	573.723816
1483.740845	539.207092
1482.869019	570.657715
1481.997070	556.223328
1481.124878	604.859863
1480.252686	576.093811
1479.380249	553.068970
1478.507690	593.085327
1477.635010	572.930115
1476.762207	575.695068
1475.889160	630.004944
1475.015991	612.716919
1474.142700	652.688171
1473.269165	655.437378
1472.395630	726.865784
1471.521851	680.961060
1470.647949	683.703796
1469.773804	700.746521
1468.899658	757.819092
1468.025269	780.561401
1467.150757	794.719727
1466.276001	911.768616
1465.401245	1011.630676
1464.526245	1042.884766
1463.651123	1111.265503
1462.775879	1231.034546
1461.900391	1382.175049
1461.024780	1524.697510
1460.149048	1487.321655
1459.273193	1595.525269
1458.397217	1583.833740
1457.520996	1626.358032
1456.644653	1494.848999
1455.768188	1554.487427
1454.891479	1394.518555
1454.014648	1380.020264
1453.137695	1285.705078
1452.260620	1239.877441
1451.383423	1154.168457
1450.505981	1099.831421
1449.628418	1105.338257
1448.750732	1008.303833
1447.872803	948.324707
1446.994873	891.213623
1446.116699	965.076660
1445.238403	762.819092
1444.359863	830.987061
1443.481201	845.069580
1442.602417	776.646362
1441.723511	776.511536
1440.844482	813.347107
1439.965210	818.892700
1439.085815	818.750549
1438.206299	915.249695
1437.326538	878.146118
1436.446777	889.359253
1435.566772	1002.841248
1434.686646	999.826660
1433.806274	985.453430
1432.925781	973.924561
1432.045166	911.298828
1431.164429	825.987183
1430.283569	729.353394
1429.402466	632.753113
1428.521240	697.893372
1427.639893	677.916870
1426.758301	538.836060
1425.876709	598.287659
1424.994873	595.348694
1424.112793	561.231201
1423.230713	555.465637
1422.348389	586.537781
1421.465942	589.268860
1420.583374	591.998962
1419.700562	577.735840
1418.817627	588.961609
1417.934570	577.534973
1417.051392	529.315002
1416.167969	568.843933
1415.284546	565.915405
1414.400757	551.671570
1413.516968	534.604065
1412.633057	542.995361
1411.748901	514.624817
1410.864624	548.460754
1409.980103	582.284790
1409.095459	565.226685
1408.210815	593.384766
1407.325806	519.827637
1406.440796	550.808411
1405.555542	542.240051
1404.670166	513.908936
1403.784668	542.051270
1402.899048	595.588074
1402.013184	530.573792
1401.127197	538.946533
1400.241089	521.925415
1399.354736	566.966187
1398.468262	555.586487
1397.581665	578.047729
1396.694946	575.127808
1395.807983	608.852783
1394.920898	589.018860
1394.033691	557.920654
1393.146362	543.737000
1392.258789	571.810242
1391.371094	599.873718
1390.483276	602.585022
1389.595337	596.849365
1388.707153	551.708008
1387.818848	613.527466
1386.930420	579.654236
1386.041748	582.366577
1385.152954	587.890869
1384.264038	624.349365
1383.375000	627.052429
1382.485718	643.811523
1381.596313	576.237305
1380.706787	612.672363
1379.817139	671.574158
1378.927246	629.315369
1378.037231	657.295166
1377.147095	738.625977
1376.256714	699.185486
1375.366333	755.213196
1374.475586	763.502441
1373.584839	712.852173
1372.693970	656.607483
1371.802856	746.269714
1370.911499	737.724426
1370.020142	673.091125
1369.128540	720.642578
1368.236816	686.874023
1367.344971	697.966431
1366.453003	717.462708
1365.560791	703.326965
1364.668457	770.442871
1363.775879	787.115051
1362.883301	767.373230
1361.990479	792.440491
1361.097534	887.490356
1360.204346	918.126221
1359.311035	926.361877
1358.417603	928.998230
1357.524048	959.610657
1356.630249	965.037476
1355.736450	869.780334
1354.842285	844.462280
1353.948120	813.561584
1353.053711	723.971252
1352.159180	687.512756
1351.264526	709.746826
1350.369751	639.778015
1349.474731	689.945618
1348.579590	692.617859
1347.684204	619.896301
1346.788818	689.583862
1345.893188	633.636353
1344.997314	661.434143
1344.101440	675.270386
1343.205322	719.790466
1342.309082	739.190369
1341.412720	691.649597
1340.516113	819.796082
1339.619385	758.318115
1338.722534	752.610596
1337.825439	777.561523
1336.928223	827.581970
1336.030884	799.577393
1335.133423	880.216858
1334.235718	849.427734
1333.337891	988.505188
1332.439941	1074.637207
1331.541870	1188.574585
1330.643555	1296.905884
1329.745117	1452.502930
1328.846436	1421.645752
1327.947754	1518.752808
1327.048828	1499.019043
1326.149780	1337.480347
1325.250488	1156.537231
1324.351074	1111.860352
1323.451538	989.382385
1322.551880	939.192871
1321.651978	825.122559
1320.751953	797.200989
1319.851807	830.387939
1318.951416	738.610352
1318.050903	674.627380
1317.150269	613.442505
1316.249512	727.121094
1315.348511	610.452698
1314.447388	629.765808
1313.546021	615.786377
1312.644653	635.091736
1311.743042	648.844604
1310.841309	615.462646
1309.939331	631.985962
1309.037231	634.646545
1308.135010	662.244202
1307.232666	664.898499
1306.330078	670.321777
1305.427368	720.054138
1304.524536	678.393555
1303.621460	700.422302
1302.718262	658.779663
1301.814941	705.711548
1300.911499	711.121765
1300.007813	669.499146
1299.104004	666.615662
1298.199951	636.077576
1297.295898	671.911865
1296.391602	655.206421
1295.487061	674.440125
1294.582520	685.376221
1293.677734	657.624634
1292.772827	621.594849
1291.867676	638.058655
1290.962402	602.044861
1290.057007	549.476563
1289.151489	582.508545
1288.245728	568.605164
1287.339844	551.946899
1286.433838	560.127686
1285.527588	543.476746
1284.621216	562.689270
1283.714722	521.223450
1282.808105	540.433105
1281.901245	529.310852
1280.994263	507.167084
1280.087036	479.519379
1279.179810	501.478119
1278.272217	504.144867
1277.364624	515.073914
1276.456787	514.983398
1275.548828	514.892883
1274.640747	454.237366
1273.732544	517.464294
1272.824097	500.861420
1271.915405	495.270355
1271.006714	517.191406
1270.097778	528.102600
1269.188721	426.257874
1268.279541	514.169067
1267.370117	464.595123
1266.460571	494.747986
1265.550781	516.645935
1264.640991	497.321594
1263.730957	499.981232
1262.820679	508.133270
1261.910400	488.820587
1260.999878	485.988861
1260.089233	565.514648
1259.178345	526.988831
1258.267334	546.105835
1257.356201	578.934937
1256.444824	543.170349
1255.533447	647.301147
1254.621704	627.990967
1253.709961	627.880432
1252.797974	657.924744
1251.885864	602.991455
1250.973633	594.664124
1250.061157	564.420471
1249.148560	465.701843
1248.235840	457.402985
1247.322876	533.999207
1246.409790	459.979828
1245.496582	481.798737
1244.583130	503.609924
1243.669556	511.730774
1242.755859	459.655731
1241.841919	454.103607
1240.927856	492.314728
1240.013672	475.820343
1239.099365	481.204712
1238.184814	459.250824
1237.270142	478.301941
1236.355225	486.415619
1235.440186	456.275787
1234.525024	464.390442
1233.609741	423.340149
1232.694214	486.072662
1231.778564	477.796143
1230.862671	483.171417
1229.946777	496.732727
1229.030640	507.560364
1228.114258	482.915802
1227.197876	526.476318
1226.281128	496.382294
1225.364380	515.382935
1224.447388	572.546692
1223.530273	613.334656
1222.613037	670.460876
1221.695557	743.916687
1220.777954	689.295654
1219.860229	844.442383
1218.942261	822.505127
1218.024170	784.237244
1217.105957	721.479797
1216.187500	718.630310
1215.268921	737.554688
1214.350220	693.886414
1213.431274	636.630432
1212.512207	590.275208
1211.593018	541.216675
1210.673706	543.840271
1209.754150	570.931396
1208.834351	486.565094
1207.914551	535.398804
1206.994507	516.283264
1206.074219	508.041626
1205.153931	472.639679
1204.233398	439.966095
1203.312744	488.764801
1202.391846	469.674255
1201.470825	475.020020
1200.549683	461.366455
1199.628296	491.132751
1198.706787	461.203339
1197.785156	450.271881
1196.863281	517.992310
1195.941284	460.958740
1195.019165	487.987640
1194.096802	439.111206
1193.174438	460.714203
1192.251709	438.955872
1191.328979	482.224213
1190.406006	441.509216
1189.482788	468.512756
1188.559570	468.429871
1187.636108	500.833496
1186.712402	470.970825
1185.788696	470.887482
1184.864746	468.098389
1183.940552	451.783783
1183.016357	505.800079
1182.091919	505.710541
1181.167236	508.324860
1180.242554	448.760559
1179.317505	508.144867
1178.392456	537.781494
1177.467163	564.705688
1176.541748	578.112976
1175.616211	586.113525
1174.690430	615.715271
1173.764526	639.906494
1172.838501	699.183228
1171.912231	782.730530
1170.985840	928.315857
1170.059204	1057.660889
1169.132446	1162.681274
1168.205566	1281.150146
1167.278564	1305.193237
1166.351318	1202.506226
1165.423828	1156.465820
1164.496338	1064.622437
1163.568604	997.064453
1162.640747	924.141846
1161.712646	862.020325
1160.784424	859.174133
1159.856079	797.086060
1158.927490	807.714233
1157.998779	823.722351
1157.069946	820.884888
1156.140869	828.812073
1155.211670	895.926880
1154.282349	928.047852
1153.352783	1003.189697
1152.423096	1027.213013
1151.493164	1094.244873
1150.563232	1064.481689
1149.632935	1037.416748
1148.702637	959.305847
1147.772095	851.669373
1146.841431	848.832031
1145.910522	735.881958
1144.979492	655.194580
1144.048340	660.447754
1143.116943	585.170959
1142.185425	526.023560
1141.253784	485.680420
1140.321899	531.202454
1139.389893	557.931763
1138.457764	509.558685
1137.525391	461.202789
1136.592896	463.801788
1135.660278	444.956177
1134.727417	498.476776
1133.794434	442.118591
1132.861206	484.904510
1131.927856	431.247253
1130.994385	401.711761
1130.060669	428.416382
1129.126831	468.497162
1128.192871	438.970703
1127.258667	409.454773
1126.324341	422.760468
1125.389893	414.659637
1124.455200	489.478851
1123.520386	411.837921
1122.585327	433.155060
1121.650146	427.731384
1120.714844	419.636780
1119.779297	427.579254
1118.843628	467.581635
1117.907837	400.712952
1116.971802	440.705841
1116.035645	419.263672
1115.099365	400.499115
1114.162842	419.114502
1113.226196	413.701843
1112.289307	418.965332
1111.352417	408.218414
1110.415161	434.821930
1109.477905	466.750275
1108.540405	437.333832
1107.602661	415.926422
1106.664917	447.841003
1105.726807	442.430786
1104.788696	461.005402
1103.850342	479.573364
1102.911865	487.479431
1101.973145	490.055969
1101.034302	484.642944
1100.095337	452.607819
1099.156128	433.893707
1098.216797	425.832062
1097.277344	439.061096
1096.337646	444.303864
1095.397827	441.564667
1094.457764	409.571320
1093.517700	401.521088
1092.577271	409.425354
1091.636841	377.454803
1090.696167	422.567688
1089.755249	414.520813
1088.814209	385.223114
1087.873047	371.873230
1086.931763	422.266449
1085.990234	440.778168
1085.048584	456.628479
1084.106689	448.584015
1083.164673	400.734344
1082.222412	405.969666
1081.280151	453.649872
1080.337524	411.129730
1079.394897	440.228149
1078.452026	434.846588
1077.509033	440.071045
1076.565796	421.438629
1075.622437	392.212494
1074.678955	365.646393
1073.735229	405.318207
1072.791382	429.083832
1071.847290	362.802429
1070.903076	378.623993
1069.958740	465.915558
1069.014160	415.543640
1068.069458	412.823151
1067.124512	407.457764
1066.179565	457.646790
1065.234253	436.405975
1064.288940	409.883911
1063.343384	497.060730
1062.397583	417.667908
1061.451660	449.309235
1060.505615	412.233643
1059.559448	465.001007
1058.613037	422.652649
1057.666382	388.242737
1056.719727	411.939056
1055.772827	443.547394
1054.825684	435.549042
1053.878418	461.863403
1052.931030	493.445801
1051.983398	535.570007
1051.035645	498.544983
1050.087769	461.533203
1049.139648	432.445190
1048.191406	469.277313
1047.242920	485.008911
1046.294312	508.641174
1045.345581	542.804871
1044.396606	576.956360
1043.447510	550.512817
1042.498291	661.023926
1041.548828	634.574707
1040.599121	663.419983
1039.649414	660.669128
1038.699341	663.182617
1037.749268	602.546143
1036.798950	657.683777
1035.848511	715.431885
1034.897827	678.486694
1033.947021	641.554688
1032.996094	565.203186
1032.044922	583.500610
1031.093506	565.000793
1030.142090	546.507507
1029.190430	504.378143
1028.238525	493.781830
1027.286499	522.579712
1026.334351	451.596008
1025.381958	454.140228
1024.429443	401.566498
1023.476807	453.977509
1022.523926	446.025146
1021.570923	427.582764
1020.617737	398.656036
1019.664368	398.584595
1018.710815	427.352936
1017.757080	427.276337
1016.803223	411.474609
1015.849121	461.188202
1014.894897	440.146210
1013.940491	434.828400
1012.985962	421.655518
1012.031189	434.672455
1011.076294	455.538849
1010.121216	452.839569
1009.165955	426.587341
1008.210510	450.060516
1007.254944	460.444427
1006.299133	481.287384
1005.343201	447.203125
1004.387085	481.114716
1003.430786	449.656952
1002.474365	517.535461
1001.517700	567.096191
1000.560913	608.800476
999.603943	645.264893
998.646790	673.880432
997.689514	699.874146
996.731995	681.471497
995.774353	660.464905
994.816528	678.616760
993.858521	644.570190
992.900330	555.744141
991.942017	545.209656
990.983459	461.649689
990.024780	458.959045
989.065918	518.843445
988.106873	440.546692
987.147705	489.987549
986.188293	497.717072
985.228760	489.811493
984.269043	476.698944
983.309143	513.075500
982.349060	466.111725
981.388794	518.098083
980.428406	523.211060
979.467834	567.360718
978.507019	606.290344
977.546082	707.645142
976.585022	871.391541
975.623718	889.439819
974.662292	1032.292725
973.700623	1201.091919
972.738831	1219.070923
971.776855	1190.264526
970.814758	1080.919189
969.852417	974.211060
968.889954	810.397766
967.927246	724.552246
966.964417	659.509521
966.001404	604.874329
965.038208	560.640930
964.074890	557.944946
963.111328	524.114380
962.147644	555.149963
961.183777	500.582520
960.219727	456.407593
959.255493	464.103699
958.291077	453.650970
957.326538	497.630341
956.361755	505.314789
955.396851	463.769531
954.431763	471.457306
953.466492	422.163177
952.501038	458.340027
951.535461	416.833069
950.569641	408.992310
949.603699	403.742432
948.637573	476.123230
947.671265	525.193481
946.704773	501.818604
945.738098	475.865906
944.771240	576.624817
943.804260	548.082642
942.837097	571.247375
941.869751	589.234924
940.902222	617.551575
939.934509	594.189331
938.966614	622.494873
937.998535	599.140137
937.030334	518.989014
936.061951	547.292664
935.093323	531.707336
934.124573	495.482513
933.155640	443.789673
932.186584	474.666107
931.217285	441.050354
930.247864	433.234436
929.278198	443.469513
928.308411	443.389496
927.338440	451.041626
926.368286	458.690979
925.397949	445.725952
924.427429	437.917542
923.456787	463.593689
922.485901	471.235168
921.514893	419.658295
920.543701	396.415405
919.572327	432.375092
918.600769	476.041351
917.629028	442.509857
916.657104	439.857697
915.685059	414.060211
914.712769	444.841492
913.740356	401.056274
912.767761	442.110382
911.794983	400.911377
910.822021	436.811676
909.848877	436.732758
908.875549	434.085266
907.902039	423.734497
906.928406	436.496033
905.954590	433.849976
904.980530	467.138580
904.006348	423.428223
903.031982	502.890472
902.057434	477.146515
901.082703	546.310913
900.107849	569.291504
899.132751	566.624634
898.157532	538.324219
897.182068	517.723022
896.206482	489.441620
895.230713	532.908081
894.254761	530.250061
893.278625	463.564758
892.302307	466.041534
891.325806	473.637817
890.349182	463.313171
889.372314	465.788605
888.395325	460.586670
887.418091	463.061646
886.440735	480.883057
885.463196	491.025726
884.485474	485.822906
883.507568	414.152954
882.529480	467.754730
881.551270	414.002991
880.572815	505.912018
879.594238	459.836731
878.615417	454.645081
877.636475	413.703156
876.657349	469.799957
875.677979	477.373260
874.698486	477.286774
873.718811	502.719025
872.739014	553.656128
871.758972	566.310547
870.778748	614.667175
869.798401	497.254700
868.817810	499.714142
867.837097	499.623566
866.856140	481.692535
865.875061	435.738037
864.893799	504.447296
863.912354	481.430573
862.930725	550.106628
861.948914	539.821533
860.966919	524.448486
859.984741	526.898743
859.002441	524.258240
858.019897	572.508301
857.037231	493.539825
856.054321	531.603638
855.071289	526.421021
854.088074	498.356506
853.104614	549.109558
852.121033	576.968750
851.137268	635.312805
850.153320	602.167236
849.169189	599.517639
848.184937	673.064941
847.200439	647.548706
846.215759	713.443726
845.230896	746.314514
844.245911	875.618225
843.260681	1174.891602
842.275330	1357.349609
841.289795	1562.571045
840.304016	1620.619385
839.318115	1316.038696
838.332031	1211.854004
837.345764	975.897522
836.359314	836.331604
835.372681	833.645752
834.385864	798.026428
833.398865	716.826782
832.411743	716.696533
831.424377	678.585754
830.436829	711.372864
829.449158	683.401306
828.461243	716.175598
827.473206	708.454773
826.484924	677.969177
825.496521	685.433716
824.507935	682.780273
823.519104	652.315796
822.530151	652.197205
821.541016	657.133423
820.551697	699.972534
819.562195	656.894409
818.572510	644.144592
817.582642	719.795349
816.592590	742.390625
815.602356	800.323120
814.611938	830.468140
813.621399	941.362427
812.630615	1153.148315
811.639648	1518.750488
810.648560	1901.876099
809.657227	2352.954102
808.665771	2576.935791
807.674072	2324.366211
806.682251	2011.395386
805.690186	1658.217041
804.697998	1305.167114
803.705566	1053.012573
802.713013	868.954956
801.720276	780.657837
800.727356	793.104614
799.734253	750.165466
798.740906	770.163818
797.747437	659.301147
796.753784	679.308655
795.759949	636.421387
794.765930	588.519592
793.771729	618.587341
792.777344	603.389832
791.782776	613.334534
790.788025	555.418945
789.793091	520.139160
788.798035	555.216431
787.802734	509.902191
786.807251	519.854736
785.811584	527.292664
784.815796	562.342896
783.819763	522.080322
782.823547	451.717865
781.827148	466.690002
780.830627	469.113464
779.833862	466.519714
778.836975	446.372894
777.839844	491.422028
776.842529	511.386749
775.845093	491.242706
774.847412	478.623627
773.849609	478.536255
772.851563	506.003540
771.853394	458.325470
770.854980	500.810699
769.856445	463.165314
768.857666	485.609009
767.858765	543.082031
766.859680	535.476135
765.860352	520.367737
764.860901	525.275330
763.861206	545.186218
762.861389	495.078674
761.861389	452.489258
760.861145	474.901917
759.860779	494.807373
758.860168	459.736969
757.859436	482.135986
756.858521	449.578308
755.857361	516.920593
754.856079	479.374939
753.854614	471.798431
752.852905	536.603821
751.851074	509.056580
750.848999	528.922852
749.846802	561.254150
748.844421	596.067627
747.841797	506.190765
746.839050	528.536072
745.836121	501.020355
744.832947	508.405243
743.829651	550.671631
742.826111	543.097046
741.822449	518.089539
740.818604	495.581512
739.814514	547.778809
738.810303	490.421234
737.805847	492.820465
736.801270	447.936615
735.796448	457.806946
734.791504	487.574646
733.786316	507.382751
732.781006	494.856293
731.775452	544.490906
730.769775	526.990540
729.763855	499.555206
728.757751	571.525635
727.751526	524.216614
726.745056	481.892883
725.738403	499.189301
724.731628	513.996277
723.724609	531.280457
722.717407	496.432831
721.710083	496.341858
720.702515	523.544739
719.694763	501.121552
718.686829	508.470764
717.678711	533.176453
716.670410	518.202148
715.661987	505.712219
714.653320	495.705383
713.644470	515.439087
712.635437	483.135559
711.626221	552.407532
710.616821	510.202179
709.607178	495.251068
708.597412	557.055298
707.587463	495.069427
706.577332	485.079041
705.567017	524.581055
704.556458	526.958801
703.545776	559.018005
702.534912	514.400024
701.523804	506.887787
700.512573	442.518341
699.501099	543.777466
698.489502	531.321350
697.477661	518.869812
696.465698	486.659912
695.453491	508.799683
694.441101	513.645142
693.428589	533.302795
692.415833	503.582397
691.402893	565.192078
690.389771	491.059265
689.376465	523.042419
688.362976	481.011963
687.349304	520.384033
686.335449	554.809937
685.321411	530.054321
684.307190	488.053345
683.292725	542.181824
682.278137	561.794250
681.263367	509.956329
680.248352	546.809143
679.233215	595.961670
678.217834	645.096130
677.202332	568.663391
676.186584	504.565216
675.170654	524.159180
674.154541	516.681641
673.138306	568.245239
672.121826	548.464905
671.105164	509.019501
670.088318	538.428833
669.071289	565.369202
668.054016	545.603760
667.036621	461.957825
666.019043	506.094696
665.001282	510.914215
663.983276	486.261536
662.965149	500.904541
661.946777	478.717682
660.928223	490.902130
659.909546	515.352356
658.890625	517.711121
657.871521	539.694153
656.852234	495.446136
655.832764	483.093658
654.813110	527.137085
653.793274	517.234619
652.773254	541.648376
651.752991	529.296387
650.732605	514.498901
649.711975	470.312347
648.691223	506.962097
647.670227	548.495605
646.649048	558.187256
645.627747	565.427612
644.606201	531.061401
643.584473	552.985046
642.562561	528.419312
641.540466	540.551575
640.518127	545.342896
639.495667	589.252930
638.473022	567.143066
637.450134	598.812195
636.427063	593.814453
635.403870	569.272644
634.380432	532.525940
633.356812	549.524048
632.333008	534.771423
631.309021	554.204224
630.284851	549.220032
629.260498	561.321289
628.235901	558.777649
627.211182	544.036804
626.186218	595.159119
625.161133	568.223328
624.135803	585.186340
623.110291	587.516174
622.084595	558.159241
621.058716	543.434631
620.032654	584.754395
619.006409	635.802979
617.979919	606.458679
616.953308	586.865662
615.926453	569.714539
614.899414	591.517395
613.872253	571.937927
612.844849	627.798828
611.817261	678.773315
610.789490	617.837158
609.761475	581.243347
608.733337	576.272888
607.705017	629.650208
606.676453	588.213074
605.647705	573.523254
604.618774	578.276733
603.589722	597.604126
602.560425	575.634155
601.530884	609.525146
600.501221	585.133057
599.471375	585.024902
598.441284	626.176392
597.411011	652.753113
596.380615	572.569702
595.349976	543.355469
594.319153	606.311340
593.288147	586.800781
592.256897	589.116577
591.225525	567.192505
590.193970	591.322083
589.162170	617.865723
588.130188	617.751343
587.098022	620.059143
586.065674	578.776184
585.033142	556.878174
584.000427	583.403503
582.967468	590.556458
581.934387	546.889526
580.901062	583.079529
579.867554	645.864746
578.833862	607.048828
577.799988	628.699097
576.765930	582.647766
575.731628	601.877258
574.697205	671.850952
573.662537	601.654297
572.627747	591.879517
571.592712	599.015991
570.557434	610.979736
569.522034	613.281006
568.486450	550.402161
567.450623	610.640076
566.414673	581.569153
565.378479	559.747009
564.342102	603.063843
563.305542	593.304810
562.268799	672.769714
561.231812	708.808716
560.194702	694.214478
559.157349	684.445618
558.119812	674.680420
557.082092	739.601685
556.044189	681.656189
555.006042	708.020325
553.967773	676.587769
552.929260	664.425537
551.890625	676.336731
550.851746	666.585449
549.812683	649.619751
548.773376	690.393616
547.733948	716.721619
546.694275	692.541992
545.654419	702.030273
544.614441	639.402039
543.574158	660.913208
542.533752	670.401978
541.493164	691.899353
540.452332	660.545105
539.411316	706.051636
538.370178	729.931396
537.328735	712.991333
536.287170	777.664246
535.245422	686.329163
534.203430	830.160034
533.161255	815.612671
532.118896	784.281738
531.076355	824.901428
530.033630	798.375366
528.990723	791.035767
527.947571	853.201172
526.904236	845.854065
525.860718	879.237183
524.817017	802.424255
523.773132	857.356628
522.729004	854.802795
521.684692	787.612976
520.640198	770.711914
519.595520	760.996277
518.550659	784.781006
517.505615	765.497559
516.460327	712.737000
515.414856	760.430176
514.369202	731.598572
513.323364	693.216064
512.277283	633.338196
511.231079	738.358765
510.184631	797.947998
509.138000	644.927734
508.091187	711.676636
507.044159	687.666870
505.996948	689.926086
504.949554	644.447632
503.901947	677.737244
502.854126	658.523376
501.806152	634.545654
500.757965	701.209351
499.709564	722.540344
