#Wave		#Intensity
3200.600830	42.098522
3200.007080	42.098522
3199.413086	0.000000
3198.819092	29.460058
3198.224854	42.079437
3197.630615	42.073078
3197.036377	29.446701
3196.442139	12.618108
3195.847656	33.643200
3195.252930	-8.409529
3194.658447	29.428900
3194.063721	42.034927
3193.468750	16.811428
3192.873779	46.224438
3192.278809	25.209517
3191.683838	42.009510
3191.088623	8.400631
3190.493164	41.996803
3189.897949	41.990452
3189.302490	46.182510
3188.706787	8.395550
3188.111328	4.197140
3187.515381	46.161556
3186.919678	37.762833
3186.323730	12.585706
3185.727783	25.167604
3185.131592	16.775864
3184.535400	29.353319
3183.939209	12.578091
3183.342773	8.384125
3182.746338	29.339996
3182.149902	8.381587
3181.553223	25.140957
3180.956543	4.189525
3180.359619	4.188891
3179.762695	54.447342
3179.165771	16.750492
3178.568604	46.056881
3177.971436	54.422619
3177.374268	0.000000
3176.776855	29.295614
3176.179443	4.184454
3175.581787	37.654385
3174.984131	37.648682
3174.386475	8.365108
3173.788574	50.183041
3173.190674	8.362574
3172.592773	50.167843
3171.994629	58.520287
3171.396484	41.793873
3170.798340	-8.357509
3170.199951	20.890606
3169.601563	71.017303
3169.002930	20.884277
3168.404297	-4.176223
3167.805664	41.755898
3167.206787	33.399658
3166.607910	33.394596
3166.008789	29.215845
3165.409912	29.211416
3164.810547	37.551846
3164.211426	25.030769
3163.612061	4.171163
3163.012695	4.170530
3162.413086	33.359184
3161.813477	29.184862
3161.213623	20.843170
3160.614014	29.176016
3160.013916	25.004221
3159.414063	58.334339
3158.813965	45.827175
3158.213867	16.661900
3157.613525	37.483593
3157.013184	24.985271
3156.412598	29.145063
3155.812256	45.792439
3155.211426	20.811588
3154.610840	16.646746
3154.010010	20.805275
3153.409180	24.962543
3152.808105	12.479379
3152.207031	12.477486
3151.605957	29.109716
3151.004639	49.894802
3150.403320	20.786346
3149.801758	24.939831
3149.200195	58.184109
3148.598633	16.621510
3147.996826	29.083227
3147.395020	33.232929
3146.793213	33.227886
3146.191162	24.917131
3145.589111	24.913351
3144.986816	8.303189
3144.384766	33.207718
3143.782227	20.751673
3143.179932	45.646751
3142.577393	41.490746
3141.974609	53.929779
3141.371826	45.625961
3140.769043	24.883110
3140.166260	58.051773
3139.563232	33.167404
3138.960205	37.307667
3138.356934	12.434000
3137.753662	29.008261
3137.150391	58.007710
3136.546875	24.856670
3135.943359	33.137196
3135.339600	37.273682
3134.735840	41.408909
3134.132080	53.823406
3133.528076	41.396328
3132.924072	33.112034
3132.320068	37.245377
3131.715820	20.688732
3131.111572	33.096943
3130.507080	20.682446
3129.902588	62.037907
3129.298096	33.081856
3128.693604	8.269207
3128.088867	24.803850
3127.483887	33.066772
3126.878906	61.990776
3126.273926	28.924631
3125.668945	45.446083
3125.063721	37.177505
3124.458252	41.302059
3123.853027	20.647890
3123.247559	24.773701
3122.641846	41.283226
3122.036133	41.276947
3121.430420	8.254134
3120.824707	41.264393
3120.218750	37.132309
3119.612549	24.751106
3119.006592	45.370129
3118.400391	28.867508
3117.793945	16.493210
3117.187500	41.226753
3116.581055	37.098431
3115.974609	8.242842
3115.367920	37.087147
3114.760986	16.480667
3114.154297	32.956322
3113.547363	8.237826
3112.940186	37.064579
3112.333008	45.294258
3111.725830	28.819233
3111.118408	53.513287
3110.510986	20.578901
3109.903564	16.460615
3109.295898	16.458109
3108.688232	41.139011
3108.080566	20.566374
3107.472656	49.351784
3106.864746	20.560112
3106.256592	41.113964
3105.648438	32.886166
3105.040039	45.211590
3104.431885	20.547594
3103.823486	36.980038
3103.214844	32.866138
3102.606201	20.538208
3101.997559	24.642096
3101.388672	4.106390
3100.779785	28.740356
3100.170898	28.735979
3099.561768	16.418058
3098.952637	41.038891
3098.343262	20.516319
3097.733887	28.718472
3097.124512	36.918125
3096.514893	45.115276
3095.905273	36.906876
3095.295410	49.201668
3094.685791	24.597086
3094.075684	16.395557
3093.465820	16.393059
3092.855713	28.683481
3092.245361	16.388063
3091.635254	24.578346
3091.024658	32.766136
3090.414307	36.856281
3089.803711	49.134216
3089.193115	32.751152
3088.582275	85.958664
3087.971436	49.111748
3087.360596	94.116501
3086.749512	53.188171
3086.138428	28.635418
3085.527100	16.360600
3084.915771	40.895264
3084.304443	36.800125
3083.692871	16.353115
3083.081299	24.525932
3082.469482	24.522192
3081.857910	12.259226
3081.245850	24.514711
3080.634033	28.596132
3080.021973	16.338154
3079.409668	20.419577
3078.797607	32.666340
3078.185059	40.826691
3077.572754	48.984554
3076.960205	28.569963
3076.347656	69.373611
3075.734863	40.801777
3075.122070	12.238665
3074.509033	36.710392
3073.895996	32.626480
3073.282959	0.000000
3072.669922	8.154130
3072.056641	40.764423
3071.443115	44.834023
3070.829834	16.300791
3070.216064	32.596603
3069.602539	16.295815
3068.988770	24.439989
3068.375000	52.945221
3067.760986	36.648788
3067.146973	44.786121
3066.532715	32.566750
3065.918701	20.351110
3065.304199	44.765602
3064.689941	32.551830
3064.075439	44.751930
3063.460693	44.745094
3062.846191	44.738258
3062.231445	24.398958
3061.616455	44.724586
3061.001465	20.326252
3060.386475	48.775551
3059.771240	69.088142
3059.156006	56.887421
3058.540771	48.753193
3057.925293	44.683598
3057.309814	44.676769
3056.694092	44.669941
3056.078369	40.602829
3055.462646	40.596622
3054.846680	40.590416
3054.230713	40.584213
3053.614502	56.809212
3052.998291	60.857704
3052.382080	44.622162
3051.765625	40.559399
3051.149170	48.663834
3050.532715	20.273497
3049.916016	24.324476
3049.299316	44.588055
3048.682373	72.951111
3048.065430	32.417755
3047.448486	40.515999
3046.831299	36.458820
3046.214111	56.705044
3045.596680	40.497406
3044.979248	40.491211
3044.361816	8.097004
3043.744141	52.622471
3043.126465	68.803467
3042.508545	44.513081
3041.890869	48.552292
3041.272705	48.544865
3040.654785	40.447861
3040.036621	20.220837
3039.418213	48.522579
3038.799805	40.429295
3038.181396	48.507725
3037.562988	76.792145
3036.944336	72.739311
3036.325439	44.444996
3035.706543	32.318687
3035.087646	36.352955
3034.468750	44.424587
3033.849609	52.493744
3033.230469	72.672516
3032.611084	60.551159
3031.991699	76.686386
3031.372070	44.390583
3030.752441	44.383785
3030.132813	48.411259
3029.513184	28.235575
3028.893066	40.330357
3028.273193	32.259342
3027.653076	8.063601
3027.032959	24.187094
3026.412598	40.305649
3025.792480	60.449207
3025.171875	40.293297
3024.551270	48.344547
3023.930664	64.449516
3023.310059	64.439644
3022.689209	36.241745
3022.068115	80.524864
3021.447266	36.230637
3020.826172	20.125046
3020.204834	60.365883
3019.583496	64.380402
3018.962158	60.347378
3018.340576	32.180332
3017.718994	68.372726
3017.097412	28.149158
3016.475586	44.227608
3015.853760	68.341278
3015.231689	52.252964
3014.609619	48.226109
3013.987549	64.291618
3013.365234	28.123268
3012.742920	72.305885
3012.120361	44.180153
3011.497803	56.220657
3010.875244	36.136307
3010.252441	80.290588
3009.629639	56.194790
3009.006836	52.172871
3008.383789	72.228271
3007.760498	48.144794
3007.137451	44.125957
3006.514160	40.108353
3005.890625	56.143074
3005.267090	84.201691
3004.643555	56.125843
3004.019775	28.058615
3003.395996	64.124130
3002.772217	84.150002
3002.148193	52.084862
3001.524170	52.076866
3000.899902	56.074169
3000.275635	60.070244
2999.651367	72.073227
2999.026855	36.031082
2998.402344	64.045418
2997.777588	60.033360
2997.152832	60.024139
2996.528076	64.015915
2995.903076	68.006470
2995.278076	95.994385
2994.653076	47.989819
2994.027832	47.982449
2993.402344	39.979233
2992.777100	59.959633
2992.151367	75.937202
2991.525879	99.902023
2990.900146	75.913872
2990.274414	87.886765
2989.648438	59.913589
2989.022461	59.904381
2988.396240	87.846260
2987.770264	67.870766
2987.143799	75.843903
2986.517578	63.858734
2985.891113	79.811150
2985.264404	79.798882
2984.637695	95.743942
2984.010986	95.729225
2983.384033	115.655029
2982.757080	91.712296
2982.130127	79.737564
2981.502930	107.629158
2980.875732	115.583916
2980.248291	87.670868
2979.620850	111.563942
2978.993408	107.562973
2978.365723	87.630424
2977.738037	111.512482
2977.110107	95.567421
2976.482178	91.571358
2975.854248	95.538025
2975.226074	127.364441
2974.597900	131.324371
2973.969482	131.304169
2973.341309	171.066986
2972.712646	123.308388
2972.083984	155.106033
2971.455322	155.082169
2970.826660	166.985870
2970.197754	190.811615
2969.568604	162.959839
2968.939697	214.597000
2968.310547	206.617157
2967.681152	210.558151
2967.051758	234.358841
2966.422363	226.379623
2965.792725	242.228607
2965.163086	258.072723
2964.533203	281.851410
2963.903564	202.425476
2963.273438	269.859070
2962.643311	277.753326
2962.013184	277.710571
2961.383057	313.367950
2960.752686	329.183960
2960.122314	257.754974
2959.491699	372.695923
2958.861084	336.960358
2958.230225	364.653870
2957.599609	368.560699
2956.968506	368.503937
2956.337646	384.294342
2955.706299	404.041077
2955.075195	380.215363
2954.443848	403.916565
2953.812500	391.976257
2953.180908	364.204620
2952.549316	415.604279
2951.917725	423.455292
2951.285889	423.390015
2950.653809	458.931519
2950.021973	454.905060
2949.389893	458.790039
2948.757568	466.628265
2948.125244	482.371796
2947.492920	454.624634
2946.860352	426.885986
2946.227783	399.155914
2945.595215	414.900085
2944.962402	375.327911
2944.329590	426.622772
2943.696533	363.363342
2943.063477	331.715363
2942.430420	284.283600
2941.797119	331.613037
2941.163574	292.090240
2940.530273	327.564209
2939.896729	315.675812
2939.262939	276.173737
2938.629150	291.910034
2937.995361	280.032654
2937.361328	283.932953
2936.727295	272.060425
2936.093262	275.960754
2935.458984	299.568268
2934.824707	382.284729
2934.190186	319.178192
2933.555664	366.407288
2932.921143	303.322632
2932.286377	370.232819
2931.651367	409.556061
2931.016602	425.242554
2930.381592	436.987396
2929.746338	484.154510
2929.111084	472.272919
2928.475830	472.200012
2927.840332	487.864685
2927.204834	487.789337
2926.569336	582.110291
2925.933594	578.087830
2925.297607	538.678894
2924.661865	644.742310
2924.025879	668.227173
2923.389648	605.241699
2922.753418	644.443542
2922.117188	667.917603
2921.480713	718.882568
2920.844238	608.795532
2920.207764	644.045410
2919.571045	624.313416
2918.934082	588.883911
2918.297363	588.792908
2917.660156	592.626587
2917.023193	620.003540
2916.385986	639.525024
2915.748779	647.271912
2915.111328	619.716064
2914.473877	627.463562
2913.836182	631.287659
2913.198486	591.985718
2912.560791	615.413147
2911.922852	623.156433
2911.284912	630.897339
2910.646729	615.127747
2910.008545	697.298157
2909.370361	669.772705
2908.731934	685.333923
2908.093506	724.383789
2907.455078	794.741455
2906.816406	731.988525
2906.177490	900.167480
2905.538574	900.028198
2904.899658	837.288025
2904.260498	950.605164
2903.621338	966.103516
2902.982178	962.043335
2902.342773	938.433594
2901.703369	1043.845825
2901.063721	918.598572
2900.424072	1043.522827
2899.784424	879.237061
2899.144531	910.357971
2898.504639	953.188660
2897.864502	851.487549
2897.224365	902.124695
2896.583984	851.223999
2895.943848	808.147217
2895.303223	878.284851
2894.662842	811.799866
2894.021973	815.576477
2893.381348	838.860229
2892.740479	811.422852
2892.099609	920.510315
2891.458496	896.968567
2890.817383	963.117065
2890.176025	888.893433
2889.534668	912.144104
2888.893311	923.695129
2888.251709	927.448914
2887.610107	1028.607544
2886.968262	1055.717651
2886.326416	997.128601
2885.684570	1028.129517
2885.042480	1164.254150
2884.400391	1097.889038
2883.758057	1206.712280
2883.115723	1167.605103
2882.473389	1253.035278
2881.830811	1268.404297
2881.188232	1275.988159
2880.545410	1279.679932
2879.902588	1295.037598
2879.259766	1275.394897
2878.616699	1294.636108
2877.973633	1197.255615
2877.330322	1181.523682
2876.687012	1309.578125
2876.043457	1165.615723
2875.399902	1041.121948
2874.756348	1002.118713
2874.112549	1048.566284
2873.468750	978.510071
2872.824707	947.299316
2872.180664	904.452881
2871.536621	915.956116
2870.892334	923.575195
2870.248047	876.872314
2869.603760	907.771240
2868.958984	934.781738
2868.314453	880.342468
2867.669678	930.614136
2867.024902	852.930603
2866.379883	903.190918
2865.734863	1046.453613
2865.089844	992.039124
2864.444580	1007.383362
2863.799316	1049.840454
2863.153809	960.590515
2862.508301	921.713928
2861.862549	898.338013
2861.216797	874.969299
2860.571045	781.930786
2859.925049	766.328003
2859.279053	723.641846
2858.632813	711.922119
2857.986572	684.731750
2857.340332	595.662842
2856.693848	599.437683
2856.047363	556.810425
2855.400635	587.653076
2854.753906	595.292908
2854.107178	494.712036
2853.460205	517.821228
2852.813232	471.375946
2852.166016	544.702332
2851.518799	463.504425
2850.871338	478.880157
2850.223877	478.805756
2849.576416	498.035065
2848.928711	528.838745
2848.281006	555.773376
2847.633301	648.301514
2846.985352	648.200745
2846.337158	605.664856
2845.688965	655.713562
2845.040771	640.185486
2844.392578	674.789429
2843.743896	690.105896
2843.095459	763.238708
2842.446777	751.557617
2841.798096	782.269104
2841.149170	778.294556
2840.500244	785.878235
2839.851074	785.756042
2839.202148	824.145325
2838.552734	839.419312
2837.903320	862.388489
2837.253906	808.363464
2836.604492	854.422729
2835.954834	804.263855
2835.304932	734.882813
2834.655029	707.839783
2834.005127	665.419739
2833.354980	611.475586
2832.704834	519.096619
2832.054688	495.948486
2831.404297	442.055817
2830.753906	415.083496
2830.103271	334.320770
2829.452637	318.900055
2828.801758	338.058289
2828.150879	288.073029
2827.500000	245.784058
2826.848877	245.745789
2826.197754	218.833282
2825.546387	191.929138
2824.895020	172.709335
2824.243408	199.544159
2823.591797	172.655563
2822.940186	191.809631
2822.288330	176.437393
2821.636475	172.574921
2820.984619	130.369629
2820.332520	176.354980
2819.680176	187.827133
2819.028076	168.634827
2818.375488	134.120453
2817.723145	126.436722
2817.070557	160.894394
2816.417725	134.057785
2815.764893	134.036896
2815.112061	156.990189
2814.458984	130.166702
2813.805908	156.941269
2813.152832	168.398529
2812.499512	107.146004
2811.845947	110.955353
2811.192383	156.843460
2810.538818	160.643875
2809.885010	110.903481
2809.231201	122.357178
2808.577393	118.515038
2807.923340	145.253860
2807.269287	114.656219
2806.614990	126.102180
2805.960693	95.517059
2805.306152	95.502167
2804.651611	114.584724
2803.997070	106.929070
2803.342285	114.548996
2802.687500	106.895721
2802.032471	99.244835
2801.377441	72.513756
2800.722412	133.557144
2800.067139	110.644371
2799.411621	125.886017
2798.756348	141.122910
2798.100586	129.660278
2797.445068	87.697685
2796.789307	99.121048
2796.133301	95.293823
2795.477539	68.600845
2794.821289	121.938034
2794.165283	91.439255
2793.509033	102.853104
2792.852539	72.366814
2792.196045	34.273666
2791.539551	91.382179
2790.882813	76.139931
2790.226074	106.579262
2789.569092	53.281311
2788.912109	91.325127
2788.255127	106.529350
2787.597900	91.296616
2786.940430	106.496086
2786.283203	95.070938
2785.625488	79.847122
2784.968018	117.851151
2784.310303	117.832741
2783.652588	106.412949
2782.994629	117.795937
2782.336426	102.580437
2781.678467	83.570999
2781.020264	117.740738
2780.361816	117.722343
2779.703369	87.328743
2779.044922	87.315094
2778.386230	94.892883
2777.727539	94.878052
2777.068604	110.041344
2776.409668	60.702976
2775.750732	87.246895
2775.091553	94.818756
2774.432373	87.219620
2773.772949	106.163811
2773.113525	79.610413
2772.453857	79.597969
2771.794189	83.375313
2771.134521	75.783890
2770.474609	109.869453
2769.814697	106.064262
2769.154541	94.685432
2768.494385	87.096970
2767.833984	79.510887
2767.173584	60.570248
2766.513184	75.700974
2765.852539	109.749237
2765.191895	52.974102
2764.531006	94.581818
2763.870117	87.001656
2763.209229	124.808937
2762.548096	86.974442
2761.886719	120.988983
2761.225586	109.629105
2760.563965	86.933617
2759.902588	98.257408
2759.240967	102.020569
2758.579102	120.894348
2757.917236	117.098068
2757.255371	94.419144
2756.593262	101.956718
2755.931152	86.838425
2755.269043	94.374817
2754.606689	158.524872
2753.944092	128.309570
2753.281494	116.969818
2752.618896	101.860985
2751.956055	105.617073
2751.293213	147.086456
2750.630371	169.688568
2749.967285	128.189056
2749.303955	158.326385
2748.640625	158.301590
2747.977295	139.434326
2747.313721	162.019913
2746.650146	150.692581
2745.986572	131.835358
2745.322754	150.645370
2744.658691	124.262962
2743.994873	146.833221
2743.330566	143.045853
2742.666504	158.078537
2742.002197	165.580124
2741.337646	124.165634
2740.673096	139.194199
2740.008545	139.172379
2739.343750	120.346436
2738.678955	124.087807
2738.013916	135.347305
2737.348877	139.085144
2736.683594	169.131088
2736.018311	127.767899
2735.353027	154.048889
2734.687500	157.781433
2734.021973	123.951691
2733.356201	153.976440
2732.690430	165.217087
2732.024658	176.454224
2731.358643	195.195328
2730.692383	180.152039
2730.026367	243.917618
2729.359863	172.591537
2728.693604	183.818680
2728.027100	168.786591
2727.360352	165.009872
2726.693604	179.982529
2726.026855	221.193817
2725.359863	194.919891
2724.692871	209.880798
2724.025635	224.836990
2723.358398	198.574844
2722.691162	239.750854
2722.023682	307.132568
2721.355957	280.869843
2720.688477	284.570099
2720.020508	258.319122
2719.352783	258.278564
2718.684814	232.039963
2718.016602	239.487518
2717.348389	295.570984
2716.680176	235.671509
2716.011719	209.452881
2715.343262	228.118210
2714.674561	183.213715
2714.005859	198.138809
2713.337158	198.107697
2712.668213	205.551163
2711.999023	194.308762
2711.329834	209.222717
2710.660645	186.776642
2709.991455	153.132782
2709.321777	216.592834
2708.652344	171.753540
2707.982666	186.659286
2707.312988	253.816742
2706.643066	186.600632
2705.972900	167.914169
2705.302979	179.080307
2704.632813	216.354691
2703.962402	167.835007
2703.291992	178.995865
2702.621582	141.682785
2701.950928	104.381432
2701.280273	171.456818
2700.609375	152.796188
2699.938477	156.498306
2699.267334	167.650391
2698.596191	163.899048
2697.925049	134.078140
2697.253662	115.438019
2696.582031	148.928848
2695.910645	137.737518
2695.239014	145.159958
2694.567139	145.137131
2693.895264	119.068138
2693.223145	107.888527
2692.551270	78.113884
2691.878906	133.888443
2691.206543	137.585922
2690.534180	137.564270
2689.861816	126.390518
2689.189209	126.370628
2688.516357	148.647934
2687.843506	118.899628
2687.170654	144.886108
2686.497559	148.577759
2685.824463	107.701920
2685.151123	100.258415
2684.477783	163.358368
2683.804199	103.938957
2683.130615	115.057152
2682.457031	100.195290
2681.783203	148.414093
2681.109375	140.971191
2680.435303	155.785721
2679.761230	92.714996
2679.086914	129.780548
2678.412598	129.760117
2677.738281	133.446518
2677.063721	126.012970
2676.389160	155.638565
2675.714355	103.742699
2675.039551	122.248917
2674.364502	114.821793
2673.689453	137.023773
2673.014404	125.893898
2672.339111	155.491486
2671.663574	122.152634
2670.988037	140.638443
2670.312500	122.114136
2669.636719	114.695198
2668.960938	107.278595
2668.285156	118.357719
2667.609131	144.225739
2666.932861	144.203003
2666.256592	144.180267
2665.580322	121.979446
2664.903809	133.047516
2664.227295	147.807251
2663.550781	103.448769
2662.874023	169.924744
2662.197021	147.737350
2661.520020	129.249786
2660.843018	147.690750
2660.165771	118.133957
2659.488525	125.497536
2658.811035	136.549301
2658.133545	151.287521
2657.455811	121.748795
2656.778076	151.239792
2656.100342	114.333992
2655.422363	147.504456
2654.744385	110.610886
2654.066162	121.652771
2653.387939	162.178101
2652.709473	143.726074
2652.031006	154.757507
2651.352539	114.207748
2650.673828	143.658035
2649.994873	147.318314
2649.316162	121.518425
2648.636963	128.862823
2647.958008	147.248550
2647.278809	154.586563
2646.599365	150.882111
2645.919922	125.101990
2645.240479	125.082237
2644.560791	150.810638
2643.880859	110.331818
2643.201172	136.054413
2642.520996	128.679794
2641.841064	128.659470
2641.160889	128.639145
2640.480469	135.968475
2639.800049	110.227295
2639.119629	117.557205
2638.438965	139.577118
2637.758301	124.865059
2637.077393	110.157639
2636.396484	143.182297
2635.715332	84.427498
2635.034180	128.456329
2634.353027	124.766426
2633.671631	106.401596
2632.989990	139.400742
2632.308350	121.039406
2631.626709	102.683868
2630.944824	157.668152
2630.262939	95.319160
2629.581055	128.293961
2628.898926	142.933533
2628.216553	109.931480
2627.534180	120.905502
2626.851807	128.212830
2626.169189	142.843124
2625.486572	128.172272
2624.803711	124.490517
2624.120850	128.131729
2623.437988	150.073425
2622.754883	131.750946
2622.071533	80.501732
2621.388184	124.392082
2620.704834	91.450294
2620.021240	102.408119
2619.337646	124.333038
2618.653809	76.781784
2617.969971	84.081024
2617.286133	120.618904
2616.602051	113.290733
2615.917725	138.850525
2615.233398	146.135315
2614.549072	124.195351
2613.864502	142.436829
2613.179932	153.369217
2612.495117	146.042801
2611.810303	102.213768
2611.125488	135.046814
2610.440430	135.025421
2609.755127	113.111496
2609.069824	113.093582
2608.384521	131.313675
2607.698975	149.528000
2607.013428	113.039848
2606.327637	153.126511
2605.641846	109.358749
2604.956055	142.143845
2604.270020	109.324097
2603.583740	160.316605
2602.897461	123.861389
2602.211182	109.272141
2601.524658	160.240417
2600.838135	109.237511
2600.151367	120.142220
2599.464600	120.123177
2598.777832	90.987984
2598.090820	171.030289
2597.403564	94.597504
2596.716309	134.598190
2596.029053	112.753578
2595.341553	160.011963
2594.654053	109.081764
2593.966309	127.241882
2593.278564	123.586800
2592.590820	156.276169
2591.902832	130.815109
2591.214600	108.995300
2590.526367	159.834427
2589.838135	127.120850
2589.149658	145.257935
2588.461182	137.973145
2587.772461	108.908882
2587.083740	130.669922
2586.394775	112.503471
2585.705811	116.114189
2585.016846	141.491714
2584.327637	130.587021
2583.638184	112.432083
2582.948975	123.293037
2582.259277	105.145020
2581.569824	119.628792
2580.879883	137.732498
2580.190186	137.710632
2579.500244	148.558945
2578.810059	119.552849
2578.119873	141.267303
2577.429688	130.379883
2576.739258	126.738091
2576.048584	152.061554
2575.358154	130.317780
2574.667236	123.058365
2573.976563	119.420029
2573.285645	94.073563
2572.594482	108.529182
2571.903320	151.916718
2571.212158	144.659607
2570.520752	126.557045
2569.829102	133.767624
2569.137451	104.828239
2568.445801	140.953506
2567.753906	144.544724
2567.062012	151.747849
2566.370117	151.723740
2565.677979	111.968773
2564.985596	101.117012
2564.293213	151.651413
2563.600830	126.356087
2562.908203	137.164795
2562.215332	147.970078
2561.522705	115.470482
2560.829590	137.099396
2560.136719	129.862991
2559.443604	158.696198
2558.750244	115.397064
2558.056885	144.223389
2557.363525	104.545334
2556.669922	126.155334
2555.976074	86.492760
2555.282227	122.511917
2554.588379	100.876122
2553.894287	104.462219
2553.200195	115.250320
2552.505859	111.630981
2551.811523	100.811943
2551.117188	115.195320
2550.422607	165.566925
2549.727783	122.356079
2549.032959	118.738472
2548.338135	122.317146
2547.643066	125.894669
2546.947998	107.892540
2546.252686	143.833817
2545.557373	107.858200
2544.861816	133.003937
2544.166260	147.359283
2543.470703	118.587364
2542.774902	125.754456
2542.078857	125.734428
2541.382813	107.755211
2540.686768	122.103127
2539.990479	143.627853
2539.294189	125.654366
2538.597656	104.097031
2537.901123	122.025360
2537.204346	122.005928
2536.507568	121.986488
2535.810791	93.268929
2535.113770	132.707718
2534.416504	121.928200
2533.719238	100.395462
2533.021973	143.399231
2532.324463	121.869926
2531.626953	139.769699
2530.929199	136.164169
2530.231445	175.552124
2529.533447	125.374390
2528.835449	128.935959
2528.137451	146.820328
2527.439209	153.957748
2526.740723	132.454147
2526.042236	110.957413
2525.343750	128.833221
2524.645020	114.500160
2523.946289	146.679947
2523.247314	121.617630
2522.548340	118.021820
2521.849121	118.002998
2521.149902	153.736954
2520.450684	135.838898
2519.751221	110.798271
2519.051514	146.516266
2518.351807	110.762924
2517.652100	135.752243
2516.952148	125.015022
2516.252197	110.709923
2515.552002	121.404411
2514.851807	132.095490
2514.151367	149.922302
2513.450928	121.346306
2512.750244	128.463821
2512.049561	110.603966
2511.348877	96.317108
2510.647949	146.235977
2509.946777	149.778793
2509.245605	139.058105
2508.544434	117.645767
2507.843018	121.191437
2507.141602	117.608200
2506.439941	149.659271
2505.738281	135.384384
2505.036377	106.865341
2504.334473	99.725060
2503.632568	124.636414
2502.930420	117.495567
2502.228027	92.557480
2501.525635	138.814041
2500.823242	160.144455
2500.120605	131.653305
2499.417969	120.959381
2498.715088	170.738907
2498.012207	120.920731
2497.309082	152.904724
2496.605957	127.992805
2495.902588	138.636719
2495.199219	120.843460
2494.495605	167.021606
2493.791992	135.017166
2493.088379	142.100616
2492.384521	134.974014
2491.680664	134.952438
2490.976563	170.438980
2490.272461	152.660507
2489.568115	110.039978
2488.863770	113.571495
2488.159180	106.456253
2487.454590	149.014923
2486.749756	106.422211
2486.044922	148.967255
2485.339844	138.304626
2484.634766	120.553970
2483.929688	145.350662
2483.224365	148.871979
2482.519043	159.480179
2481.813477	120.476852
2481.107666	120.457581
2480.402100	138.149826
2479.696045	131.044250
2478.990234	148.729126
2478.284180	148.705322
2477.577881	138.061417
2476.871582	113.263031
2476.165039	155.711746
2475.458496	141.533478
2474.751953	109.670883
2474.045166	137.950958
2473.338379	176.831894
2472.631348	137.906799
2471.924072	134.349213
2471.217041	148.467453
2470.509521	144.909302
2469.802246	137.818481
2469.094482	113.063728
2468.386963	151.905060
2467.679199	148.348618
2466.971191	120.072502
2466.263184	91.805443
2465.554932	134.155685
2464.846680	151.783432
2464.138428	151.759109
2463.429932	130.562500
2462.721436	165.823090
2462.012695	134.048248
2461.303955	95.229553
2460.594971	176.322754
2459.885986	116.354370
2459.176758	130.437027
2458.467529	95.168518
2457.758057	144.491989
2457.048584	133.897934
2456.338867	144.445679
2455.629150	144.422516
2454.919434	151.443237
2454.209473	154.940323
2453.499512	158.436279
2452.789307	151.370392
2452.078857	190.062576
2451.368408	112.611610
2450.657959	137.223389
2449.947266	140.719360
2449.236572	91.452919
2448.525879	140.674225
2447.814697	144.167953
2447.103760	140.629105
2446.392578	165.212677
2445.681152	161.671570
2444.969727	158.131607
2444.258301	101.890678
2443.546631	140.516312
2442.834717	129.956741
2442.122803	168.565460
2441.410889	133.426239
2440.698730	143.936783
2439.986572	112.322876
2439.274170	115.814369
2438.561768	161.412292
2437.849121	140.335983
2437.136475	157.852631
2436.423584	136.783661
2435.710693	133.254974
2434.997803	168.295059
2434.284424	164.762436
2433.571289	147.210876
2432.857910	119.151573
2432.144287	133.148010
2431.430908	168.159958
2430.717041	122.596939
2430.003174	136.586075
2429.289307	154.072357
2428.575195	136.542191
2427.861084	164.524399
2427.146729	136.498322
2426.432373	153.973358
2425.717773	150.449783
2425.003174	174.913483
2424.288330	136.410599
2423.573486	139.885818
2422.858643	136.366745
2422.143555	157.320953
2421.428223	178.268433
2420.712891	171.249969
2419.997559	146.762085
2419.281982	153.726044
2418.566162	167.674179
2417.850586	132.720718
2417.134521	97.778481
2416.418457	171.084824
2415.702393	139.638626
2414.986084	136.125763
2414.269775	129.124176
2413.553223	163.996231
2412.836670	146.526245
2412.120117	125.573723
2411.403076	142.991501
2410.686279	139.481461
2409.969238	149.918457
2409.251953	160.352066
2408.534668	153.355560
2407.817383	125.452538
2407.099854	149.821976
2406.382080	118.444824
2405.664307	128.875092
2404.946533	135.819443
2404.228516	167.135483
2403.510498	177.552872
2402.792236	142.715607
2402.073975	132.251709
2401.355469	114.831673
2400.636963	173.959366
2399.918213	156.538223
2399.199463	128.688477
2398.480469	170.397827
2397.761475	146.031769
2397.042480	166.866562
2396.323242	145.984726
2395.603760	132.060150
2394.884277	170.260651
2394.164795	149.388336
2393.445068	166.732208
2392.725098	177.124420
2392.005127	166.678482
2391.285156	138.876358
2390.564941	152.739380
2389.844727	170.068710
2389.124268	142.279449
2388.403809	135.317184
2387.683105	187.332047
2386.962402	180.364746
2386.241455	169.931702
2385.520508	187.241470
2384.799316	114.406898
2384.078125	159.450577
2383.356689	176.753647
2382.635254	149.003555
2381.913818	152.444168
2381.192139	155.883667
2380.470215	190.493759
2379.748291	131.592651
2379.026367	138.496231
2378.304199	162.706818
2377.581787	190.370880
2376.859375	173.036530
2376.136963	166.088272
2375.414307	128.005722
2374.691650	131.444122
2373.968750	155.632385
2373.245850	176.354919
2372.522705	172.869080
2371.799316	176.298004
2371.076172	138.250626
2370.352783	158.962555
2369.629150	172.757507
2368.905518	155.456650
2368.181641	176.155762
2367.457764	169.220367
2366.733643	113.946342
2366.009521	172.618103
2365.285400	196.752853
2364.561035	155.306122
2363.836426	158.731735
2363.111816	155.255966
2362.387207	169.029190
2361.662354	165.552872
2360.937256	162.077667
2360.212158	148.259872
2359.487061	127.551842
2358.761719	155.105560
2358.036377	161.972961
2357.310791	199.849243
2356.584961	151.585266
2355.859375	182.561844
2355.133301	161.868301
2354.407471	185.946289
2353.681152	168.701782
2352.955078	134.251144
2352.228516	158.321899
2351.502197	185.826111
2350.775635	189.236740
2350.048828	175.445694
2349.322021	161.659119
2348.594971	168.510971
2347.867920	171.922165
2347.140869	137.515503
2346.413330	168.429245
2345.686035	151.218124
2344.958496	147.757446
2344.230713	195.832855
2343.502930	195.801178
2342.775146	157.989426
2342.047119	154.529877
2341.319092	157.938309
2340.590820	140.748337
2339.862305	157.887207
2339.133789	130.407471
2338.405273	126.955147
2337.676514	137.226593
2336.947754	157.785049
2336.218750	198.914169
2335.489746	188.594971
2334.760498	188.564453
2334.031250	167.966583
2333.301758	181.648743
2332.572266	174.765778
2331.842529	154.180130
2331.112793	164.432175
2330.382813	174.680893
2329.652832	157.529816
2328.922607	195.168365
2328.192383	184.866409
2327.462158	212.219650
2326.731689	188.228882
2326.000977	167.667664
2325.270264	201.852844
2324.539307	208.661514
2323.808350	191.527069
2323.077393	208.593903
2322.346191	150.436798
2321.614746	164.086288
2320.883301	170.895523
2320.151855	191.371964
2319.420166	160.589722
2318.688232	184.477448
2317.956299	204.941711
2317.224365	194.663071
2316.492188	139.998108
2315.760010	153.631561
2315.027588	150.193176
2314.295166	177.472244
2313.562500	160.381592
2312.829590	180.826523
2312.096924	170.563400
2311.363770	146.660736
2310.630615	173.918243
2309.897461	173.890045
2309.164063	180.679947
2308.430664	173.833633
2307.697021	184.029297
2306.963379	207.851212
2306.229492	173.749054
2305.495605	180.533447
2304.761719	194.127121
2304.027344	187.285248
2303.293213	180.445587
2302.558838	194.032639
2301.824219	173.579971
2301.089600	183.760742
2300.354736	176.926056
2299.619873	176.897339
2298.885010	180.269958
2298.149658	180.240692
2297.414551	197.212509
2296.679199	180.182175
2295.943604	180.152924
2295.208008	193.717911
2294.472412	180.094421
2293.736572	166.475357
2293.000488	203.814270
2292.264404	186.799408
2291.528320	207.143875
2290.791992	162.971985
2290.055420	196.892487
2289.318848	156.130753
2288.582275	176.466965
2287.845459	166.259155
2287.108398	176.409622
2286.371582	159.421249
2285.634277	186.526474
2284.896973	193.277847
2284.159668	213.588165
2283.422119	189.825287
2282.684570	230.464676
2281.946777	193.152222
2281.208740	189.732742
2280.470703	176.151764
2279.732666	226.927887
2278.994385	220.118118
2278.256104	192.995285
2277.517578	162.495911
2276.779053	165.854279
2276.040283	189.516922
2275.301514	219.939224
2274.562500	192.838409
2273.823486	155.598679
2273.084229	169.101486
2272.344971	213.033218
2271.605469	185.951126
2270.865967	189.301254
2270.126221	243.347733
2269.386475	175.722549
2268.646484	182.451416
2267.906494	168.909012
2267.166260	179.014404
2266.426025	226.264404
2265.685547	172.203094
2264.945068	202.558899
2264.204346	246.406540
2263.463623	205.867844
2262.722656	205.834335
2261.981689	172.062988
2261.240723	161.915268
2260.499268	172.006958
2259.758057	155.118271
2259.016602	165.207779
2258.274902	209.004379
2257.533203	192.117889
2256.791260	185.346725
2256.049316	205.532883
2255.307129	181.917511
2254.564941	202.097641
2253.822754	215.535706
2253.080322	215.500595
2252.337646	225.565430
2251.594971	164.938889
2250.852051	252.416336
2250.109131	215.360184
2249.366211	191.773911
2248.623047	158.103592
2247.879639	171.531250
2247.136230	215.219833
2246.392578	181.562134
2245.648926	178.170822
2244.905273	188.225281
2244.161377	231.882614
2243.417236	174.723633
2242.673096	215.009399
2241.928955	191.461533
2241.184570	147.770767
2240.439941	177.967575
2239.695313	177.938553
2238.950439	198.050232
2238.205566	221.511597
2237.460693	194.629944
2236.715576	171.112213
2235.970215	177.793488
2235.224854	221.367096
2234.479492	217.977478
2233.733887	191.118286
2232.988037	160.915466
2232.242188	181.000351
2231.496338	197.727371
2230.750244	214.448929
2230.003906	180.911758
2229.257568	184.231903
2228.511230	157.408829
2227.764648	194.217499
2227.017822	204.229874
2226.270996	177.416672
2225.523926	200.816269
2224.776855	210.822647
2224.029785	190.713150
2223.282471	194.027313
2222.534912	210.719391
2221.787354	197.308151
2221.039795	230.712524
2220.291992	217.302399
2219.543945	190.526352
2218.795898	203.863327
2218.047852	193.805588
2217.299561	180.410217
2216.551025	203.763428
2215.802490	213.749649
2215.053955	176.982498
2214.305176	163.598602
2213.556152	230.335892
2212.807129	190.246368
2212.058105	210.237946
2211.308838	196.857315
2210.559326	190.153107
2209.809814	256.831512
2209.060303	220.105301
2208.310547	203.397400
2207.560547	210.031830
2206.810547	179.997849
2206.060303	213.295898
2205.310059	186.603394
2204.559814	203.231171
2203.809326	206.529037
2203.058594	226.478683
2202.307861	199.801437
2201.557129	219.745636
2200.806152	219.709686
2200.054932	206.360184
2199.303711	202.998581
2198.552246	262.856781
2197.800781	202.932159
2197.049316	189.594101
2196.297607	209.517090
2195.545654	226.108414
2194.793701	192.825623
2194.041504	196.118088
2193.289307	212.703445
2192.537109	215.991577
2191.784668	222.601028
2191.031982	209.277161
2190.279297	219.206833
2189.526367	225.812485
2188.773438	205.854156
2188.020508	212.459808
2187.267090	219.063309
2186.513916	212.390228
2185.760498	218.991562
2185.006836	232.225723
2184.253174	218.919830
2183.499268	208.934692
2182.745361	215.532227
2181.991211	212.181580
2181.237061	202.202438
2180.482666	185.598053
2179.728271	205.449890
2178.973877	215.355713
2178.218994	248.446640
2177.464355	228.533463
2176.709229	195.380646
2175.954346	208.592590
2175.198975	188.695694
2174.443848	228.383667
2173.688232	234.964951
2172.932861	221.691147
2172.177002	215.038239
2171.421387	208.387497
2170.665283	244.732483
2169.909424	195.092545
2169.153076	191.754440
2168.396729	198.334137
2167.640381	234.656906
2166.883789	181.746658
2166.127197	267.619354
2165.370361	184.990448
2164.613525	214.685822
2163.856445	214.650604
2163.099365	171.692307
2162.342041	211.278931
2161.584473	207.943573
2160.826904	227.710358
2160.069336	217.774155
2159.311523	211.140289
2158.553711	224.299728
2157.795654	217.666946
2157.037354	220.928665
2156.279053	220.892395
2155.520752	214.263412
2154.762207	227.411514
2154.003662	230.669449
2153.244873	250.399994
2152.485840	227.299515
2151.726807	181.151016
2150.967773	243.690430
2150.208252	227.187546
2149.448975	230.442261
2148.689453	197.489502
2147.929688	207.329910
2147.169922	223.747910
2146.410156	200.682053
2145.650146	217.095734
2144.889893	187.460968
2144.129639	210.447906
2143.369141	230.139572
2142.608643	197.230072
2141.847900	223.490677
2141.087158	220.167862
2140.326416	229.988312
2139.565186	210.240463
2138.804199	174.076767
2138.042725	229.874908
2137.281494	226.553726
2136.519775	216.667938
2135.758301	226.479248
2134.996338	210.033157
2134.234619	219.842300
2133.472412	255.893738
2132.710449	236.170746
2131.947998	206.615417
2131.185547	213.139572
2130.423096	239.332764
2129.660400	226.181427
2128.897705	252.363831
2128.134766	219.553192
2127.371826	252.280807
2126.608643	216.205109
2125.845215	199.793045
2125.081787	222.683472
2124.318359	242.292130
2123.554688	242.252258
2122.790771	245.485519
2122.026855	225.809509
2121.262939	258.492981
2120.498779	245.364319
2119.734375	212.614059
2118.969971	215.849503
2118.205322	228.893600
2117.440674	222.317169
2116.676025	271.313049
2115.911133	274.536652
2115.145996	228.742874
2114.380859	192.765808
2113.615479	225.400848
2112.850098	218.831436
2112.084473	238.389008
2111.318848	222.024414
2110.552979	212.194260
2109.787109	244.799179
2109.020996	199.070526
2108.254883	231.666855
2107.488525	260.990082
2106.722168	215.281326
2105.955566	247.858856
2105.188965	228.253418
2104.422119	254.297607
2103.655029	237.957245
2102.887939	215.103958
2102.120850	198.775436
2101.353516	224.807266
2100.585938	228.027740
2099.818359	205.191132
2099.050781	240.978409
2098.282959	273.497955
2097.514893	224.621979
2096.746826	247.368912
2095.978760	263.599701
2095.210449	260.302429
2094.441895	250.499771
2093.673340	195.162430
2092.904541	273.182312
2092.135742	256.879059
2091.366699	243.832306
2090.597656	256.794312
2089.828369	243.751831
2089.059082	269.707520
2088.289551	224.177673
2087.520020	253.376419
2086.750244	279.317627
2085.980469	237.056061
2085.210449	253.250961
2084.440186	272.686798
2083.670166	249.921616
2082.899658	243.389954
2082.129150	243.349762
2081.358643	233.577194
2080.587891	240.025818
2079.816895	233.500061
2079.045898	239.946533
2078.274902	210.729034
2077.503662	265.798889
2076.732178	298.164124
2075.960693	239.788040
2075.188965	265.667175
2074.417236	223.512268
2073.645264	223.475342
2072.873291	284.964935
2072.101074	262.253937
2071.328857	265.447754
2070.556396	252.457352
2069.783936	232.999039
2069.011230	242.667221
2068.238525	242.627106
2067.465576	226.414520
2066.692627	261.950653
2065.919434	229.573090
2065.145996	265.096924
2064.372559	245.658951
2063.599121	271.472900
2062.825439	271.428009
2062.051514	248.767853
2061.277588	242.266281
2060.503662	261.604309
2059.729248	232.498688
2058.955078	264.746368
2058.180664	251.790268
2057.406006	251.748611
2056.631348	277.523041
2055.856445	248.438828
2055.081543	251.623657
2054.306396	238.680389
2053.531250	235.416000
2052.755859	257.947449
2051.980225	286.919037
2051.204590	222.406036
2050.428955	257.819397
2049.653076	267.443329
2048.877197	219.073929
2048.101074	254.470215
2047.324707	251.207474
2046.548340	235.065506
2045.771851	260.782928
2044.995239	296.148834
2044.218506	276.788940
2043.441528	238.127777
2042.664551	276.697235
2041.887329	276.651428
2041.110107	260.523865
2040.332642	247.617462
2039.555176	279.729218
2038.777466	247.535416
2037.999634	250.708618
2037.221802	247.453400
2036.443726	266.691284
2035.665527	250.584000
2034.887207	250.542480
2034.108765	272.981812
2033.330200	295.413696
2032.551514	285.733246
2031.772705	231.116684
2030.993774	282.429108
2030.214600	234.248947
2029.435425	250.251892
2028.656128	285.496460
2027.876587	250.168900
2027.097046	272.574738
2026.317261	243.673477
2025.537476	269.278656
2024.757446	217.951324
2023.977295	275.598602
2023.197021	291.573395
2022.416626	233.860733
2021.636230	262.649292
2020.855591	269.010742
2020.074707	281.774017
2019.293823	304.137360
2018.512817	291.283234
2017.731689	249.629913
2016.950439	291.186554
2016.168945	255.945709
2015.387451	323.077820
2014.605713	313.429413
2013.823975	287.795563
2013.041992	322.916931
2012.260010	258.929993
2011.477783	287.652222
2010.695435	258.844025
2009.912964	274.776398
2009.130371	287.508942
2008.347656	268.297119
2007.564819	300.187378
2006.781860	233.085526
2005.998779	277.740723
2005.215576	306.421600
2004.432129	271.265717
2003.648682	268.029816
2002.864990	299.888306
2002.081299	283.889618
2001.297363	251.950043
2000.513428	296.550110
1999.729248	296.500824
1998.944946	280.513306
1998.160522	293.215149
1997.375977	261.300507
1996.591309	296.303741
1995.806519	293.068970
1995.021606	347.165283
1994.236572	315.262848
1993.451416	305.658569
1992.666016	273.773621
1991.880615	292.825409
1991.094971	289.594360
1990.309326	280.000702
1989.523438	308.585815
1988.737549	279.907562
1987.951416	273.500519
1987.165161	305.252136
1986.378784	279.767883
1985.592285	292.435974
1984.805664	317.812286
1984.018921	305.049011
1983.232056	279.581757
1982.444946	292.241364
1981.657837	320.776794
1980.870605	298.495056
1980.083130	301.620331
1979.295654	282.523590
1978.507935	285.650452
1977.720093	276.082794
1976.932129	329.975067
1976.144165	307.713959
1975.355957	307.662720
1974.567627	291.755219
1973.779053	282.194458
1972.990479	323.360016
1972.201782	294.779144
1971.412964	323.252319
1970.623901	326.367096
1969.834839	351.657379
1969.045532	326.258362
1968.256226	370.542419
1967.466675	322.983154
1966.677002	300.767517
1965.887207	297.551941
1965.097290	316.491882
1964.307251	310.110352
1963.517090	325.877991
1962.726807	303.680328
1961.936401	294.141266
1961.145874	351.013306
1960.355103	297.204956
1959.564331	306.639099
1958.773315	319.230774
1957.982178	338.138611
1957.191040	287.527863
1956.399658	328.548492
1955.608154	309.542114
1954.816528	322.122772
1954.024780	322.069031
1953.232910	303.073242
1952.440918	331.431061
1951.648682	350.311523
1950.856445	350.253082
1950.063965	321.800507
1949.271484	315.438049
1948.478760	397.385620
1947.685913	350.019379
1946.893066	296.363342
1946.099976	290.009338
1945.306763	312.023193
1944.513428	327.727203
1943.719971	362.330170
1942.926270	343.368683
1942.132568	355.909943
1941.338745	327.508423
1940.544678	327.453735
1939.750610	358.879761
1938.956299	346.229645
1938.161865	355.612885
1937.367310	336.674561
1936.572632	295.720764
1935.777832	339.707550
1934.982910	358.520294
1934.187866	358.460388
1933.392700	342.681183
1932.597290	339.480591
1931.801880	361.423584
1931.006226	304.802002
1930.210571	355.019287
1929.414673	358.101196
1928.618652	345.478485
1927.822510	383.103027
1927.026245	317.106049
1926.229858	339.027008
1925.433350	323.277252
1924.636719	323.223236
1923.839844	389.058044
1923.042969	335.663330
1922.245850	351.289764
1921.448730	348.095032
1920.651367	379.391510
1919.853882	344.843689
1919.056274	376.130188
1918.258545	316.523285
1917.460693	394.804596
1916.662720	350.878723
1915.864624	328.893768
1915.066284	366.420319
1914.267944	378.884094
1913.469360	350.643982
1912.670776	366.236420
1911.871948	359.915741
1911.072998	347.338776
1910.273926	400.467773
1909.474731	378.503845
1908.675415	350.292023
1907.875977	400.266724
1907.076294	406.452850
1906.276611	403.258759
1905.476807	346.932007
1904.676758	371.873840
1903.876587	371.811584
1903.076294	365.501434
1902.275879	356.069946
1901.475342	409.099579
1900.674683	384.052063
1899.873901	368.378479
1899.072998	377.680756
1898.271851	343.288635
1897.470703	365.073090
1896.669312	383.730499
1895.867920	371.189240
1895.066284	371.127045
1894.264526	408.483185
1893.462646	346.061340
1892.660645	408.346283
1891.858521	377.111572
1891.056152	355.235657
1890.253784	395.678650
1889.451172	342.656342
1888.648560	389.316925
1887.845703	379.909637
1887.042725	410.980835
1886.239624	354.878479
1885.436401	438.855042
1884.633057	379.654877
1883.829590	407.593842
1883.025879	395.081940
1882.222168	385.684601
1881.418213	382.510071
1880.614258	385.555237
1879.810059	379.272949
1879.005737	379.209320
1878.201294	413.330963
1877.396729	310.723022
1876.592041	441.152649
1875.787231	397.591980
1874.982178	409.947937
1874.177124	450.246002
1873.371826	375.659485
1872.566406	428.366150
1871.760986	363.119049
1870.955322	394.088684
1870.149536	403.330139
1869.343506	390.854340
1868.537476	446.615692
1867.731323	443.439728
1866.924927	368.954285
1866.118530	424.691193
1865.311890	365.730957
1864.505127	384.262909
1863.698242	430.673981
1862.891235	415.112366
1862.084106	387.166626
1861.276855	393.295197
1860.469482	402.518005
1859.661865	473.653137
1858.854126	386.906494
1858.046387	430.167725
1857.238403	386.776459
1856.430298	386.711456
1855.622070	371.180603
1854.813721	436.063904
1854.005249	429.806335
1853.196533	401.909576
1852.387817	411.115265
1851.578857	414.136719
1850.769775	438.787506
1849.960693	451.071869
1849.151367	450.996033
1848.341919	401.504272
1847.532227	419.964600
1846.722534	429.156311
1845.912720	410.562531
1845.102661	447.530457
1844.292603	388.823120
1843.482300	394.928467
1842.671875	475.068359
1841.861328	407.132935
1841.050659	434.818817
1840.239868	447.078857
1839.428833	459.334747
1838.617798	459.257446
1837.806519	437.607941
1836.995117	422.128143
1836.183716	446.702759
1835.372070	440.467163
1834.560303	449.632019
1833.748291	455.714630
1832.936279	455.637909
1832.124146	427.858124
1831.311768	440.096466
1830.499390	421.559875
1829.686768	439.948242
1828.874023	452.178345
1828.061157	467.479797
1827.248169	467.401031
1826.434937	415.056000
1825.621704	461.095642
1824.808228	417.989594
1823.994751	491.669617
1823.181030	436.283264
1822.367188	445.425446
1821.553223	386.994110
1820.739136	436.062714
1819.924927	429.848541
1819.110474	469.683868
1818.296021	503.367126
1817.481323	484.869507
1816.666626	447.968445
1815.851685	503.112579
1815.036621	460.086365
1814.221436	484.542572
1813.406006	466.063629
1812.590576	456.787964
1811.774902	514.949219
1810.959229	478.086487
1810.143311	468.813416
1809.327271	484.052460
1808.511108	453.339722
1807.694824	441.012878
1806.878418	425.628113
1806.061768	471.479645
1805.245117	502.010498
1804.428223	422.352173
1803.611206	452.880981
1802.794067	489.518402
1801.976807	434.374268
1801.159424	464.885529
1800.341919	461.749115
1799.524170	473.900848
1798.706421	553.300476
1797.888428	485.966431
1797.070313	485.884369
1796.252075	464.414795
1795.433716	470.446075
1794.615234	485.638275
1793.796509	479.448608
1792.977783	421.354980
1792.158813	470.128326
1791.339844	457.839844
1790.520630	482.176514
1789.701294	460.736389
1788.881714	439.303528
1788.062134	503.283569
1787.242432	497.099152
1786.422485	417.736664
1785.602417	533.515076
1784.782349	460.269470
1783.962036	508.953705
1783.141479	505.820557
1782.320923	441.756531
1781.500244	478.234833
1780.679321	490.336243
1779.858398	517.658813
1779.037231	517.571289
1778.215942	465.735382
1777.394531	483.917664
1776.572998	477.749847
1775.751221	465.499146
1774.929443	444.126678
1774.107422	492.714722
1773.285278	465.262970
1772.463013	513.830994
1771.640625	504.624329
1770.818115	468.066254
1769.995483	489.259186
1769.172607	483.099701
1768.349731	501.245026
1767.526611	525.458862
1766.703369	485.891266
1765.880005	540.462524
1765.056519	506.977356
1764.232910	506.891541
1763.409058	500.736206
1762.585083	500.651428
1761.761108	533.937744
1760.936890	494.415436
1760.112549	503.429871
1759.288086	503.344604
1758.463379	545.702942
1757.638672	500.142944
1756.813721	512.180847
1755.988647	490.883118
1755.163574	554.422180
1754.338257	496.775055
1753.512695	508.805298
1752.687134	475.410095
1751.861328	505.605316
1751.035522	520.654968
1750.209473	553.858765
1749.383301	529.556641
1748.557007	520.390320
1747.730591	523.327087
1746.903931	489.968903
1746.077271	544.317627
1745.250366	507.943634
1744.423340	550.178955
1743.596313	528.928528
1742.768921	534.882751
1741.941528	552.920593
1741.114014	589.077759
1740.286255	549.712646
1739.458374	507.341003
1738.630493	516.313110
1737.802368	525.282104
1736.973999	531.229675
1736.145630	540.193054
1735.317139	546.136108
1734.488403	540.009766
1733.659546	539.918152
1732.830566	530.779175
1732.001465	530.689087
1731.172241	518.539978
1730.342896	491.323639
1729.513306	530.418945
1728.683594	554.434753
1727.853882	581.455139
1727.023926	512.075562
1726.193726	533.070557
1725.363525	499.856964
1724.533203	493.750732
1723.702637	541.829529
1722.871948	517.660278
1722.041138	532.618103
1721.210205	526.510376
1720.379150	499.347839
1719.547974	544.377136
1718.716553	517.220825
1717.885010	583.277832
1717.053467	556.124084
1716.221558	528.979492
1715.389648	492.828949
1714.557617	516.781555
1713.725342	600.806641
1712.893066	552.648193
1712.060547	600.602417
1711.227905	603.502869
1710.395142	561.372375
1709.562256	561.276978
1708.729126	621.200928
1707.895874	582.089355
1707.062622	527.991272
1706.229126	527.901489
1705.395508	557.801025
1704.561646	476.748810
1703.727783	608.575745
1702.893677	542.529480
1702.059570	515.465149
1701.225220	617.254395
1700.390747	548.244385
1699.556030	545.155762
1698.721313	589.985779
1697.886353	574.913635
1697.051392	646.667786
1696.216187	634.584473
1695.380859	547.684875
1694.545410	598.460815
1693.709717	532.539490
1692.874023	586.291992
1692.038086	619.090698
1691.202026	568.150757
1690.365845	565.064270
1689.529541	633.720825
1688.692993	567.860596
1687.856445	537.881592
1687.019653	555.716370
1686.182739	549.647278
1685.345703	597.340942
1684.508545	636.059753
1683.671143	552.352173
1682.833740	570.169128
1681.996094	599.918701
1681.158325	561.022400
1680.320435	605.681580
1679.482422	584.696350
1678.644287	590.562012
1677.805908	605.372009
1676.967407	632.103394
1676.128784	566.411194
1675.290039	643.810364
1674.451172	563.238037
1673.612183	589.958313
1672.772949	646.460205
1671.933594	601.671448
1671.094116	610.503052
1670.254517	568.713135
1669.414795	619.226013
1668.574829	601.261169
1667.734863	589.254456
1666.894653	621.884766
1666.054321	630.703735
1665.213867	597.876526
1664.373169	562.086487
1663.532471	624.434021
1662.691528	555.948730
1661.850464	630.165894
1661.009277	624.114441
1660.167969	582.407410
1659.326538	579.337036
1658.484863	591.119934
1657.643066	585.079163
1656.801147	602.795959
1655.959106	632.382324
1655.116943	641.179626
1654.274658	623.262695
1653.432129	632.058472
1652.589478	626.016785
1651.746704	569.548340
1650.903809	590.212280
1650.060791	622.730713
1649.217529	622.624329
1648.374146	637.339844
1647.530640	580.917542
1646.687012	595.635132
1645.843262	607.384766
1644.999390	589.506897
1644.155273	636.795654
1643.311035	615.957458
1642.466675	604.008911
1641.622192	597.985046
1640.777588	618.601563
1639.932739	654.007568
1639.087769	606.554871
1638.242798	636.034180
1637.397461	641.841064
1636.552124	638.774048
1635.706665	656.405518
1634.860962	626.730469
1634.015137	582.286743
1633.169189	641.292480
1632.323120	658.911377
1631.476929	590.850830
1630.630493	632.102234
1629.783936	658.573303
1628.937256	599.405884
1628.090454	619.968994
1627.243530	655.283691
1626.396484	684.683777
1625.549194	660.960876
1624.701782	669.698425
1623.854248	660.734680
1623.006592	628.180359
1622.158691	633.970215
1621.310791	657.447266
1620.462646	645.544006
1619.614380	607.120056
1618.765991	636.482910
1617.917358	601.019836
1617.068726	642.156372
1616.219849	683.278748
1615.370850	665.493713
1614.521729	624.161560
1613.672363	644.660217
1612.822998	662.208740
1611.973389	650.324707
1611.123657	685.518982
1610.273804	691.284851
1609.423828	644.108276
1608.573608	649.879150
1607.723389	661.528320
1606.872925	652.596069
1606.022339	649.545166
1605.171509	625.924927
1604.320679	631.693848
1603.469604	634.523193
1602.618408	675.533875
1601.767090	619.622681
1600.915649	613.644226
1600.064087	663.444153
1599.212280	660.395264
1598.360352	601.590332
1597.508301	704.180054
1596.656128	671.789917
1595.803833	639.410889
1594.951294	627.570923
1594.098633	677.308472
1593.245850	747.549927
1592.392944	633.110107
1591.539795	662.307129
1590.686646	668.053650
1589.833252	644.502563
1588.979736	661.966248
1588.126099	647.209900
1587.272217	620.746399
1586.418335	714.321350
1585.564209	667.366028
1584.709961	690.663818
1583.855591	658.358826
1583.000977	626.064880
1582.146362	666.907898
1581.291504	704.812317
1580.436523	701.767273
1579.581421	695.799683
1578.726074	707.372314
1577.870605	660.490479
1577.015137	663.299011
1576.159424	698.243347
1575.303467	651.387085
1574.447510	700.924011
1573.591309	654.083313
1572.734985	700.683167
1571.878540	668.453674
1571.021973	642.072205
1570.165161	676.977966
1569.308350	659.356567
1568.451294	662.160278
1567.594116	647.463928
1566.736694	638.604614
1565.879272	653.072388
1565.021606	679.195068
1564.163818	681.992798
1563.305908	664.391602
1562.447876	745.855286
1561.589600	658.337097
1560.731201	728.123779
1559.872681	748.382507
1559.014038	695.846924
1558.155273	692.816223
1557.296265	765.459351
1556.437134	715.857849
1555.577881	704.096741
1554.718506	727.247498
1553.859009	762.024231
1552.999268	729.905273
1552.139404	767.577026
1551.279419	744.189026
1550.419312	706.276550
1549.558960	752.650818
1548.698608	708.938965
1547.838013	758.201721
1546.977173	758.071167
1546.116333	688.244995
1545.255249	737.485779
1544.394165	801.224487
1543.532837	795.281555
1542.671265	777.732666
1541.809692	789.204651
1540.947876	777.464783
1540.085938	797.634277
1539.223877	849.696716
1538.361694	774.163635
1537.499268	823.313049
1536.636841	863.750061
1535.774170	909.969116
1534.911377	918.504761
1534.048340	967.595398
1533.185303	1063.012939
1532.322021	1106.269653
1531.458618	1247.958130
1530.594971	1406.967773
1529.731323	1467.509644
1528.867432	1649.578491
1528.003418	1637.720093
1527.139282	1640.330811
1526.275024	1478.067871
1525.410522	1362.132935
1524.545898	1182.624878
1523.681152	1023.415649
1522.816284	965.429016
1521.951172	919.022339
1521.086060	869.742188
1520.220703	791.588867
1519.355225	794.340820
1518.489502	872.180115
1517.623779	773.854126
1516.757813	822.799866
1515.891724	767.814026
1515.025513	715.733154
1514.159058	727.151733
1513.292480	804.921875
1512.425781	715.362610
1511.558960	784.455811
1510.692017	746.834473
1509.824829	738.056458
1508.957520	755.224243
1508.090088	757.975891
1507.222534	720.384949
1506.354736	726.022644
1505.486938	711.494568
1504.618896	797.773071
1503.750610	740.044312
1502.882324	748.553589
1502.013794	748.424316
1501.145142	756.929199
1500.276367	713.635010
1499.407471	759.544678
1498.538330	773.796265
1497.669067	710.389038
1496.799683	716.017456
1495.930176	713.018616
1495.060547	827.878479
1494.190674	781.750061
1493.320679	778.741394
1492.450562	747.002747
1491.580200	781.344727
1490.709717	755.360779
1489.839233	766.716553
1488.968384	743.615173
1488.097534	792.286865
1487.226440	777.799255
1486.355347	800.621643
1485.483887	771.791992
1484.612427	854.848450
1483.740845	851.832458
1482.869019	817.273560
1481.997070	834.334961
1481.124878	825.590698
1480.252686	805.384888
1479.380249	802.379822
1478.507690	805.106140
1477.635010	856.530518
1476.762207	836.333191
1475.889160	841.915710
1475.015991	876.127930
1474.142700	901.740295
1473.269165	918.757202
1472.395630	944.353210
1471.521851	1012.858032
1470.647949	1006.961243
1469.773804	1032.528564
1468.899658	1092.403320
1468.025269	1203.722900
1467.150757	1254.971069
1466.276001	1294.768555
1465.401245	1403.137451
1464.526245	1522.897583
1463.651123	1634.045898
1462.775879	1779.430420
1461.900391	1870.505493
1461.024780	2030.074829
1460.149048	2146.767334
1459.273193	2192.063477
1458.397217	2251.612305
1457.520996	2296.874023
1456.644653	2188.070801
1455.768188	2213.362061
1454.891479	2138.832031
1454.014648	2089.989502
1453.137695	1998.401855
1452.260620	1975.252930
1451.383423	1977.760132
1450.505981	1749.472778
1449.628418	1848.877808
1448.750732	1603.601929
1447.872803	1563.454224
1446.994873	1435.053223
1446.116699	1420.570068
1445.238403	1371.935791
1444.359863	1383.081177
1443.481201	1311.707397
1442.602417	1297.255371
1441.723511	1302.718994
1440.844482	1305.336792
1439.965210	1293.736694
1439.085815	1350.369751
1438.206299	1409.825562
1437.326538	1386.845581
1436.446777	1440.591553
1435.566772	1534.091431
1434.686646	1593.473755
1433.806274	1525.038940
1432.925781	1487.861450
1432.045166	1357.011963
1431.164429	1402.191284
1430.283569	1109.638794
1429.402466	1072.559082
1428.521240	1004.285645
1427.639893	941.708740
1426.758301	947.217102
1425.876709	879.000793
1424.994873	864.673096
1424.112793	856.019348
1423.230713	855.870544
1422.348389	830.220154
1421.465942	801.745605
1420.583374	872.419495
1419.700562	809.963013
1418.817627	806.990662
1417.934570	787.032959
1417.051392	815.201721
1416.167969	738.648071
1415.284546	829.066101
1414.400757	777.998413
1413.516968	831.606323
1412.633057	797.524475
1411.748901	797.385742
1410.864624	735.050476
1409.980103	782.975220
1409.095459	768.708313
1408.210815	743.143799
1407.325806	768.440796
1406.440796	703.339966
1405.555542	773.821716
1404.670166	776.510742
1403.784668	773.552368
1402.899048	793.176575
1402.013184	688.617065
1401.127197	705.427429
1400.241089	753.265320
1399.354736	815.190186
1398.468262	792.486328
1397.581665	764.150879
1396.694946	730.186768
1395.807983	763.884766
1394.920898	806.025757
1394.033691	757.983093
1393.146362	783.206665
1392.258789	763.352600
1391.371094	737.872864
1390.483276	754.639221
1389.595337	748.877075
1388.707153	810.672974
1387.818848	771.130859
1386.930420	779.437988
1386.041748	784.928894
1385.152954	796.043579
1384.264038	838.090576
1383.375000	818.261230
1382.485718	820.929993
1381.596313	857.328735
1380.706787	862.800049
1379.817139	828.930420
1378.927246	859.689758
1378.037231	904.483093
1377.147095	929.601501
1376.256714	937.863281
1375.366333	901.202393
1374.475586	979.640991
1373.584839	965.437561
1372.693970	970.881165
1371.802856	953.878601
1370.911499	945.297058
1370.020142	919.891174
1369.128540	984.223938
1368.236816	1012.087830
1367.344971	1003.501953
1366.453003	969.695740
1365.560791	1045.183105
1364.668457	1025.389404
1363.775879	1036.414917
1362.883301	1134.255981
1361.990479	1142.458374
1361.097534	1206.651001
1360.204346	1214.837769
1359.311035	1220.222900
1358.417603	1270.377197
1357.524048	1253.369019
1356.630249	1172.031006
1355.736450	1241.744263
1354.842285	1121.289307
1353.948120	1098.727417
1353.053711	1034.244629
1352.159180	1020.090027
1351.264526	980.791870
1350.369751	1008.558350
1349.474731	952.516052
1348.579590	946.763916
1347.684204	974.521667
1346.788818	1010.645203
1345.893188	1172.366821
1344.997314	1236.351563
1344.101440	1241.716187
1343.205322	1221.969849
1342.309082	1316.595703
1341.412720	1333.098877
1340.516113	1349.596191
1339.619385	1374.451538
1338.722534	1435.535034
1337.825439	1399.053345
1336.928223	1432.246338
1336.030884	1337.272217
1335.133423	1303.612305
1334.235718	1398.074463
1333.337891	1400.614380
1332.439941	1550.707031
1331.541870	1608.890137
1330.643555	1836.819458
1329.745117	1978.409180
1328.846436	1997.537354
1327.947754	1961.026978
1327.048828	1969.026978
1326.149780	1762.915894
1325.250488	1684.763428
1324.351074	1556.604370
1323.451538	1389.582031
1322.551880	1303.199585
1321.651978	1194.621948
1320.751953	1077.749146
1319.851807	1083.114746
1318.951416	1124.575928
1318.050903	993.895447
1317.150269	993.721313
1316.249512	993.547180
1315.348511	943.426941
1314.447388	946.035889
1313.546021	990.251099
1312.644653	948.477661
1311.743042	970.494080
1310.841309	967.551636
1309.939331	978.469482
1309.037231	931.184448
1308.135010	991.980896
1307.232666	994.577332
1306.330078	1005.482666
1305.427368	1033.000732
1304.524536	1096.505493
1303.621460	1002.185242
1302.718262	1026.921265
1301.814941	1079.323608
1300.911499	1070.833252
1300.007813	1007.015259
1299.104004	1042.797119
1298.199951	1064.738525
1297.295898	1047.961304
1296.391602	1039.483643
1295.487061	1188.562500
1294.582520	1099.918335
1293.677734	1221.302856
1292.772827	1113.345337
1291.867676	1035.809448
1290.962402	1038.389282
1290.057007	958.132507
1289.151489	875.143188
1288.245728	869.469055
1287.339844	822.400879
1286.433838	849.848938
1285.527588	830.388306
1284.621216	805.417969
1283.714722	777.698486
1282.808105	805.135010
1281.901245	771.911621
1280.994263	724.918152
1280.087036	801.954834
1279.179810	793.547791
1278.272217	705.251831
1277.364624	818.058533
1276.456787	735.297119
1275.548828	759.948792
1274.640747	677.226624
1273.732544	710.137207
1272.824097	748.540161
1271.915405	704.384521
1271.006714	668.497437
1270.097778	687.633606
1269.188721	706.763062
1268.279541	679.143066
1267.370117	764.245239
1266.460571	717.384583
1265.550781	725.502747
1264.640991	689.655884
1263.730957	675.798828
1262.820679	727.866577
1261.910400	722.246155
1260.999878	711.136230
1260.089233	741.208496
1259.178345	743.822815
1258.267334	751.924622
1257.356201	727.098389
1256.444824	765.376343
1255.533447	699.414368
1254.621704	800.757080
1253.709961	800.616089
1252.797974	778.544250
1251.885864	729.071533
1250.973633	715.241211
1250.061157	695.935913
1249.148560	643.764282
1248.235840	687.473938
1247.322876	714.737427
1246.409790	741.991272
1245.496582	698.060669
1244.583130	689.726624
1243.669556	700.551208
1242.755859	711.371948
1241.841919	681.155396
1240.927856	664.624878
1240.013672	683.649963
1239.099365	716.338867
1238.184814	683.408936
1237.270142	765.283081
1236.355225	718.692749
1235.440186	737.691345
1234.525024	715.707642
1233.609741	682.806702
1232.694214	663.571106
1231.778564	720.789612
1230.862671	726.122009
1229.946777	693.242371
1229.030640	750.425293
1228.114258	736.651184
1227.197876	747.432678
1226.281128	752.755554
1225.364380	788.072388
1224.447388	777.027649
1223.530273	828.683228
1222.613037	896.673279
1221.695557	951.014404
1220.777954	986.264893
1219.860229	1105.947144
1218.942261	1067.622559
1218.024170	1072.880127
1217.105957	1072.690674
1216.187500	988.116699
1215.268921	1031.487915
1214.350220	938.787537
1213.431274	889.650208
1212.512207	897.653564
1211.593018	870.298157
1210.673706	829.356445
1209.754150	804.741455
1208.834351	769.262146
1207.914551	747.384155
1206.994507	725.513855
1206.074219	766.137634
1205.153931	752.420654
1204.233398	706.118408
1203.312744	695.132141
1202.391846	738.447388
1201.470825	708.458435
1200.549683	724.616760
1199.628296	735.342407
1198.706787	740.638306
1197.785156	830.019226
1196.863281	702.408386
1195.941284	729.399414
1195.019165	683.182678
1194.096802	677.640747
1193.174438	666.680542
1192.251709	707.206665
1191.328979	679.990295
1190.406006	712.373779
1189.482788	687.874268
1188.559570	663.383362
1187.636108	755.311035
1186.712402	793.071594
1185.788696	714.449951
1184.864746	771.144714
1183.940552	743.955322
1183.016357	727.594727
1182.091919	735.578918
1181.167236	675.963928
1180.242554	694.767883
1179.317505	683.833252
1178.392456	740.462952
1177.467163	721.418274
1176.541748	734.797791
1175.616211	718.461792
1174.690430	799.349670
1173.764526	783.007935
1172.838501	828.761536
1171.912231	906.887817
1170.985840	1033.560913
1170.059204	1135.906128
1169.132446	1135.704956
1168.205566	1170.566650
1167.278564	1224.292847
1166.351318	1162.063232
1165.423828	1172.640137
1164.496338	1180.518066
1163.568604	1102.160522
1162.640747	1126.213745
1161.712646	1023.649109
1160.784424	1031.547607
1159.856079	1090.607544
1158.927490	1093.106567
1157.998779	1122.523682
1157.069946	1162.695923
1156.140869	1181.326294
1155.211670	1229.545288
1154.282349	1396.106812
1153.352783	1500.750244
1152.423096	1591.911255
1151.493164	1570.120361
1150.563232	1650.484253
1149.632935	1496.997681
1148.702637	1526.290527
1147.772095	1405.120117
1146.841431	1195.348999
1145.910522	1184.393921
1144.979492	1076.774780
1144.048340	1081.953125
1143.116943	1097.866577
1142.185425	1073.517578
1141.253784	1100.160034
1140.321899	979.236877
1139.389893	898.592041
1138.457764	804.566345
1137.525391	866.095886
1136.592896	825.728027
1135.660278	742.487122
1134.727417	790.594910
1133.794434	734.184814
1132.861206	787.634949
1131.927856	766.066589
1130.994385	720.403076
1130.060669	795.247925
1129.126831	776.366699
1128.192871	835.115051
1127.258667	826.938049
1126.324341	818.763916
1125.389893	845.370605
1124.455200	759.628357
1123.520386	708.682129
1122.585327	794.117615
1121.650146	711.103455
1120.714844	676.229980
1119.779297	740.246582
1118.843628	643.926697
1117.907837	675.869202
1116.971802	713.142212
1116.035645	656.935425
1115.099365	654.148560
1114.162842	699.414001
1113.226196	683.275269
1112.289307	691.159363
1111.352417	669.691650
1110.415161	725.592468
1109.477905	704.126160
1108.540405	720.000793
1107.602661	698.543091
1106.664917	722.410217
1105.726807	740.938293
1104.788696	743.471130
1103.850342	764.653076
1102.911865	727.223389
1101.973145	743.073975
1101.034302	742.941650
1100.095337	748.134094
1099.156128	785.267761
1098.216797	747.867554
1097.277344	723.785522
1096.337646	694.391052
1095.397827	654.366882
1094.457764	667.548096
1093.517700	678.065430
1092.577271	661.992920
1091.636841	677.823730
1090.696167	619.234436
1089.755249	624.438416
1088.814209	624.327087
1087.873047	711.871643
1086.931763	674.564026
1085.990234	666.477844
1085.048584	738.039063
1084.106689	671.548828
1083.164673	687.352295
1082.222412	700.496643
1081.280151	684.454163
1080.337524	737.381104
1079.394897	681.558044
1078.452026	694.693909
1077.509033	691.918945
1076.565796	683.843811
1075.622437	662.521118
1074.678955	635.906738
1073.735229	654.337219
1072.791382	696.599060
1071.847290	701.771118
1070.903076	728.123047
1069.958740	653.870117
1069.014160	666.987244
1068.069458	722.440491
1067.124512	709.082336
1066.179565	835.932861
1065.234253	767.016602
1064.288940	740.435486
1063.343384	793.182007
1062.397583	748.101379
1061.451660	774.397705
1060.505615	745.191589
1059.559448	729.206116
1058.613037	742.283752
1057.666382	715.739990
1056.719727	718.252747
1055.772827	712.844055
1054.825684	704.797546
1053.878418	768.012878
1052.931030	738.849365
1051.983398	754.546936
1051.035645	712.207153
1050.087769	725.266479
1049.139648	669.762695
1048.191406	804.098816
1047.242920	801.319092
1046.294312	748.466797
1045.345581	824.747253
1044.396606	840.406738
1043.447510	911.375305
1042.498291	871.708801
1041.548828	876.819031
1040.599121	968.803833
1039.649414	944.941101
1038.699341	971.088806
1037.749268	928.815735
1036.798950	965.479797
1035.848511	967.937195
1034.897827	978.283142
1033.947021	1007.030579
1032.996094	885.923096
1032.044922	906.791504
1031.093506	835.675598
1030.142090	767.212463
1029.190430	727.670532
1028.238525	740.672729
1027.286499	716.905823
1026.334351	785.041931
1025.381958	753.400269
1024.429443	682.400574
1023.476807	732.137146
1022.523926	713.640259
1021.570923	676.787476
1020.617737	692.402588
1019.664368	663.433594
1018.710815	684.289063
1017.757080	655.331787
1016.803223	670.939514
1015.849121	707.504639
1014.894897	686.418457
1013.940491	707.250977
1012.985962	683.553406
1012.031189	667.719788
1011.076294	740.905090
1010.121216	711.979004
1009.165955	704.000000
1008.210510	766.672852
1007.254944	756.070679
1006.299133	763.782166
1005.343201	761.029907
1004.387085	797.499939
1003.430786	799.971130
1002.474365	857.331482
1001.517700	885.924438
1000.560913	985.054810
999.603943	1115.498413
998.646790	1115.298218
997.689514	1159.493042
996.731995	1080.954834
995.774353	1015.497437
994.816528	976.164124
993.858521	960.331299
992.900330	821.875122
991.942017	766.945679
990.983459	722.468689
990.024780	727.554382
989.065918	737.852722
988.106873	711.652344
987.147705	714.130798
986.188293	643.644592
985.228760	719.084961
984.269043	656.437866
983.309143	718.826599
982.349060	658.805969
981.388794	669.101563
980.428406	736.660339
979.467834	762.553650
978.507019	798.846069
977.546082	803.905701
976.585022	902.605591
975.623718	985.665771
974.662292	1042.693604
973.700623	1263.486206
972.738831	1198.276611
971.776855	1153.880981
970.814758	1075.722534
969.852417	979.406799
968.889954	932.476929
967.927246	901.145630
966.964417	810.106201
966.001404	742.463745
965.038208	737.139038
964.074890	687.699585
963.111328	721.305969
962.147644	690.046265
961.183777	702.890503
960.219727	656.085938
959.255493	705.230225
958.291077	692.141785
957.326538	650.547974
956.361755	676.344421
955.396851	665.859070
954.431763	676.100830
953.466492	730.368225
952.501038	714.699707
951.535461	691.269775
950.569641	654.905396
949.603699	678.080261
948.637573	701.246704
947.671265	708.881836
946.704773	739.794434
945.738098	706.040161
944.771240	783.485779
943.804260	731.638672
942.837097	790.957886
941.869751	819.243286
940.902222	785.504944
939.934509	834.448547
938.966614	834.298096
937.998535	821.235168
937.030334	823.669128
936.061951	738.328796
935.093323	727.871216
934.124573	719.998047
933.155640	699.226746
932.186584	647.506470
931.217285	675.761353
930.247864	644.694092
929.278198	621.372986
928.308411	657.350708
927.338440	662.386841
926.368286	610.729004
925.397949	656.994873
924.427429	646.572388
923.456787	659.333252
922.485901	636.038757
921.514893	646.222290
920.543701	658.976257
919.572327	643.415283
918.600769	640.725891
917.629028	640.610229
916.657104	609.627319
915.685059	622.376221
914.712769	632.549133
913.740356	673.568848
912.767761	637.461487
911.794983	665.615723
910.822021	662.925964
909.848877	647.392090
908.875549	634.432312
907.902039	672.838989
906.928406	654.744019
905.954590	682.864441
904.980530	672.474243
904.006348	646.690369
903.031982	723.546509
902.057434	761.895203
901.082703	802.794922
900.107849	777.005981
899.132751	781.993286
898.157532	815.176697
897.182068	750.954651
896.206482	717.506042
895.230713	781.427734
894.254761	722.369690
893.278625	717.116760
892.302307	696.501648
891.325806	645.171509
890.349182	698.809326
889.372314	632.141663
888.395325	637.144897
887.418091	647.263000
886.440735	677.840515
885.463196	695.619751
884.485474	680.152039
883.507568	631.455444
882.529480	654.345459
881.551270	638.893494
880.572815	712.876038
879.594238	682.091125
878.615417	679.413452
877.636475	681.844116
876.657349	725.126038
875.677979	696.913879
874.698486	681.473633
873.718811	719.628235
872.739014	734.806335
871.758972	770.386475
870.778748	742.191528
869.798401	706.356689
868.817810	693.480835
867.837097	685.707825
866.856140	698.326721
865.875061	726.230042
864.893799	756.670959
863.912354	728.513977
862.930725	733.475464
861.948914	718.064514
860.966919	758.668152
859.984741	707.622498
859.002441	781.297485
858.019897	793.878174
857.037231	796.278198
856.054321	791.046570
855.071289	793.446167
854.088074	788.216919
853.104614	805.869141
852.121033	869.265686
851.137268	899.602966
850.153320	904.521301
849.169189	980.566956
848.184937	1028.646484
847.200439	992.908020
846.215759	1167.915039
845.230896	1322.550537
844.245911	1505.048096
843.260681	1761.068726
842.275330	2270.706299
841.289795	2490.981689
840.304016	2325.677490
839.318115	2059.004639
838.332031	1655.524292
837.345764	1465.113647
836.359314	1254.497437
835.372681	1241.600098
834.385864	1165.371948
833.398865	1129.698730
832.411743	1058.583618
831.424377	1012.814514
830.436829	1043.009399
829.449158	1035.226440
828.461243	1007.200989
827.473206	956.414001
826.484924	908.175110
825.496521	981.358948
824.507935	897.729614
823.519104	879.867859
822.530151	877.179932
821.541016	877.020386
820.551697	849.064148
819.562195	891.860474
818.572510	927.062988
817.582642	914.266357
816.592590	957.027344
815.602356	964.427246
814.611938	1085.414307
813.621399	1203.833496
812.630615	1433.234741
811.639648	1680.212280
810.648560	2005.293701
809.657227	2375.651367
808.665771	2655.101318
807.674072	2422.685547
806.682251	2109.696777
805.690186	1753.980225
804.697998	1481.541138
803.705566	1226.835205
802.713013	1095.638794
801.720276	999.745728
800.727356	981.939026
799.734253	933.930847
798.740906	931.243774
797.747437	830.417480
796.753784	852.909790
795.759949	804.959839
794.765930	819.903381
793.771729	792.093567
792.777344	779.378540
791.782776	816.941467
790.788025	764.015198
789.793091	743.773926
788.798035	763.736633
787.802734	683.218689
786.807251	765.969482
785.811584	748.253418
784.815796	743.096008
783.819763	702.800415
782.823547	727.767700
781.827148	755.234863
780.830627	722.484924
779.833862	697.271423
778.836975	714.698181
777.839844	689.495178
776.842529	757.052917
775.845093	709.294312
774.847412	716.682495
773.849609	739.100525
772.851563	698.886108
771.853394	731.317139
770.854980	698.630920
769.856445	688.489014
768.857666	718.400940
767.858765	733.285889
766.859680	730.649719
765.860352	715.505676
764.860901	707.871033
763.861206	625.213562
762.861389	740.117615
761.861389	682.483765
760.861145	679.859619
759.860779	682.234436
758.860168	709.593994
757.859436	704.468140
756.858521	689.353455
755.857361	651.769409
754.856079	731.546082
753.854614	713.938354
752.852905	743.757813
751.851074	798.520081
750.848999	813.343628
749.846802	1040.191040
748.844421	1239.521362
747.841797	1421.323853
746.839050	1221.616333
745.836121	1024.474487
744.832947	867.279541
743.829651	792.369080
742.826111	807.171753
741.822449	749.735352
740.818604	707.262024
739.814514	729.541748
738.810303	684.598206
737.805847	729.274780
736.801270	684.347595
735.796448	733.983948
734.791504	676.634216
733.786316	669.048828
732.781006	703.740356
731.775452	711.070251
730.769775	693.539429
729.763855	685.956360
728.757751	690.800537
727.751526	673.282959
726.745056	693.031494
725.738403	717.739868
724.731628	682.845337
723.724609	734.855225
722.717407	729.756226
721.710083	704.805420
720.702515	669.938721
719.694763	672.296753
718.686829	721.780457
717.678711	714.208496
716.670410	753.748535
715.661987	708.988708
714.653320	706.380188
713.644470	713.684875
712.635437	703.643555
711.626221	686.174377
710.616821	728.152649
709.607178	705.732788
708.597412	695.700134
707.587463	641.114868
706.577332	670.695984
705.567017	650.777466
704.556458	717.455627
703.545776	714.850464
702.534912	707.300049
701.523804	729.423889
700.512573	736.706543
699.501099	701.967285
698.489502	731.493591
697.477661	733.830139
696.465698	755.928589
695.453491	753.319946
694.441101	716.139893
693.428589	817.237183
692.415833	777.590454
691.402893	725.617798
690.389771	755.096130
689.376465	762.359009
688.362976	811.553528
687.349304	742.348755
686.335449	811.255371
685.321411	742.075989
684.307190	843.001221
683.292725	929.102478
682.278137	1015.172119
681.263367	1143.090454
680.248352	1105.933838
679.233215	1034.313721
678.217834	940.559998
677.202332	814.838013
676.186584	804.843018
675.170654	743.174011
674.154541	752.878906
673.138306	713.381470
672.121826	779.656372
671.105164	730.332336
670.088318	712.987976
669.071289	715.314941
668.054016	712.725647
667.036621	732.252319
666.019043	719.833740
665.001282	680.400208
663.983276	709.745361
662.965149	734.168884
661.946777	734.033813
660.928223	714.262573
659.909546	726.401428
658.890625	696.824402
657.871521	765.384460
656.852234	733.358398
655.832764	733.223389
654.813110	811.545959
653.793274	742.758728
652.773254	749.974670
651.752991	708.178955
650.732605	717.848450
649.711975	690.771240
648.691223	710.236755
647.670227	705.208618
646.649048	722.216003
645.627747	734.321594
644.606201	736.633545
643.584473	738.944641
642.562561	777.950623
641.540466	699.537354
640.518127	723.863220
639.495667	757.960205
638.473022	740.708435
637.450134	789.454468
636.427063	737.991638
635.403870	691.434143
634.380432	737.719421
633.356812	681.409790
632.333008	744.772949
631.309021	705.572754
630.284851	759.144104
629.260498	737.039307
628.235901	766.184265
627.211182	741.646606
626.186218	809.806702
625.161133	748.689087
624.135803	741.236084
623.110291	758.164063
622.084595	772.648376
621.058716	762.757996
620.032654	757.744263
619.006409	806.324890
617.979919	793.998108
616.953308	781.675842
615.926453	749.880676
614.899414	793.558289
613.872253	759.338867
612.844849	805.431824
611.817261	778.521362
610.789490	802.701843
609.761475	746.617981
608.733337	802.405273
607.705017	785.239441
606.676453	755.926697
605.647705	775.228516
604.618774	762.936523
603.589722	762.795532
602.560425	757.796875
601.530884	769.798706
600.501221	803.647522
599.471375	776.796509
598.441284	776.652893
597.411011	839.600647
596.380615	812.757813
595.349976	822.310242
594.319153	853.686340
593.288147	807.457336
592.256897	812.156616
591.225525	853.212708
590.193970	884.559692
589.162170	879.549988
588.130188	818.823364
587.098022	830.782410
586.065674	765.243835
585.033142	784.471924
584.000427	774.643677
582.967468	779.340881
581.934387	805.815125
580.901062	808.085327
579.867554	846.639221
578.833862	819.878723
577.799988	812.472656
576.765930	785.728271
575.731628	800.085815
574.697205	809.604553
573.662537	799.789429
572.627747	850.373840
571.592712	821.231628
570.557434	845.228882
569.522034	808.854858
568.486450	801.462830
567.450623	830.277466
566.414673	849.428772
565.378479	817.906189
564.342102	779.158508
563.305542	836.897461
562.268799	824.685486
561.231812	848.641724
560.194702	862.947144
559.157349	865.197144
558.119812	838.531372
557.082092	876.921875
556.044189	850.263733
555.006042	823.615479
553.967773	847.540527
552.929260	866.642029
551.890625	827.970947
550.851746	827.817322
549.812683	861.347656
548.773376	892.460022
547.733948	877.863708
546.694275	889.724060
545.654419	879.942078
544.614441	877.374939
543.574158	922.875183
542.533752	833.797485
541.493164	912.922791
540.452332	980.008728
539.411316	965.417542
538.370178	934.024048
537.328735	943.453125
536.287170	962.479492
535.245422	1029.493774
534.203430	983.715698
533.161255	1029.111206
532.118896	1026.521606
531.076355	1023.932922
530.033630	1059.705444
528.990723	1114.641357
527.947571	1061.708252
526.904236	1080.680420
525.860718	1066.104980
524.817017	1087.464478
523.773132	1060.918945
522.729004	1015.227966
521.684692	1027.009033
520.640198	1053.146729
519.595520	1024.234009
518.550659	942.694214
517.505615	956.871948
516.460327	1006.920410
515.414856	923.037903
514.369202	846.359131
513.323364	937.036865
512.277283	944.032410
511.231079	896.066467
510.184631	903.066895
509.138000	929.173706
508.091187	840.638184
507.044159	876.297668
505.996948	885.683716
504.949554	875.971436
503.901947	954.559509
502.854126	901.890747
501.806152	920.806885
500.757965	901.554871
499.709564	956.233215
