#Wave		#Intensity
3200.600830	16.839409
3200.007080	29.468966
3199.413086	25.255297
3198.819092	0.000000
3198.224854	21.039719
3197.630615	58.902306
3197.036377	37.860046
3196.442139	16.824142
3195.847656	21.027000
3195.252930	16.819057
3194.658447	29.428900
3194.063721	58.848900
3193.468750	29.420000
3192.873779	37.819996
3192.278809	42.015862
3191.683838	25.205706
3191.088623	33.602524
3190.493164	71.394562
3189.897949	16.796181
3189.302490	12.595230
3188.706787	20.988874
3188.111328	25.182840
3187.515381	25.179029
3186.919678	41.958702
3186.323730	54.538059
3185.727783	25.167604
3185.131592	20.969830
3184.535400	46.126644
3183.939209	16.770788
3183.342773	37.728561
3182.746338	62.871422
3182.149902	4.190794
3181.553223	25.140957
3180.956543	12.568576
3180.359619	20.944456
3179.762695	-12.564772
3179.165771	29.313362
3178.568604	50.243870
3177.971436	16.745420
3177.374268	20.928608
3176.776855	0.000000
3176.179443	4.184454
3175.581787	33.470566
3174.984131	62.747807
3174.386475	41.825535
3173.788574	71.092644
3173.190674	8.362574
3172.592773	25.083921
3171.994629	16.720081
3171.396484	29.255711
3170.798340	8.357509
3170.199951	45.959332
3169.601563	41.774883
3169.002930	16.707422
3168.404297	54.290894
3167.805664	29.229130
3167.206787	33.399658
3166.607910	29.220272
3166.008789	20.868460
3165.409912	12.519178
3164.810547	-4.172427
3164.211426	41.717949
3163.612061	41.711624
3163.012695	41.705303
3162.413086	16.679592
3161.813477	41.692661
3161.213623	0.000000
3160.614014	25.008013
3160.013916	8.334741
3159.414063	-4.166739
3158.813965	4.166107
3158.213867	20.827375
3157.613525	41.648434
3157.013184	0.000000
3156.412598	33.308643
3155.812256	29.140644
3155.211426	41.623177
3154.610840	8.323373
3154.010010	37.449497
3153.409180	0.000000
3152.808105	4.159793
3152.207031	45.750782
3151.605957	29.109716
3151.004639	24.947401
3150.403320	41.572693
3149.801758	24.939831
3149.200195	29.092054
3148.598633	29.087641
3147.996826	62.321198
3147.395020	16.616465
3146.793213	0.000000
3146.191162	4.152855
3145.589111	37.370026
3144.986816	12.454784
3144.384766	16.603859
3143.782227	24.902008
3143.179932	41.497044
3142.577393	24.894447
3141.974609	45.632893
3141.371826	29.034704
3140.769043	49.766220
3140.166260	24.879332
3139.563232	29.021481
3138.960205	37.307667
3138.356934	41.446667
3137.753662	33.152298
3137.150391	53.864300
3136.546875	24.856670
3135.943359	-4.142149
3135.339600	41.415199
3134.735840	45.549801
3134.132080	24.841572
3133.528076	62.094494
3132.924072	49.668049
3132.320068	28.968626
3131.715820	37.239716
3131.111572	57.919647
3130.507080	24.818933
3129.902588	33.086884
3129.298096	33.081856
3128.693604	-4.134604
3128.088867	16.535900
3127.483887	49.600159
3126.878906	16.530874
3126.273926	57.849262
3125.668945	66.103394
3125.063721	49.570007
3124.458252	20.651030
3123.853027	41.295780
3123.247559	57.805302
3122.641846	70.181480
3122.036133	0.000000
3121.430420	41.270672
3120.824707	49.517273
3120.218750	28.880684
3119.612549	61.877766
3119.006592	37.121014
3118.400391	12.371789
3117.793945	49.479630
3117.187500	37.104076
3116.581055	28.854336
3115.974609	28.849947
3115.367920	61.811909
3114.760986	78.283173
3114.154297	32.956322
3113.547363	28.832394
3112.940186	12.354859
3112.333008	49.411919
3111.725830	28.819233
3111.118408	16.465626
3110.510986	69.968262
3109.903564	53.496998
3109.295898	41.145275
3108.688232	49.366814
3108.080566	53.472572
3107.472656	32.901188
3106.864746	24.672134
3106.256592	20.556982
3105.648438	49.329247
3105.040039	32.881157
3104.431885	32.876152
3103.823486	41.088932
3103.214844	49.299210
3102.606201	20.538208
3101.997559	41.070160
3101.388672	36.957516
3100.779785	36.951885
3100.170898	49.261677
3099.561768	53.358688
3098.952637	53.350559
3098.343262	41.032639
3097.733887	24.615833
3097.124512	41.020138
3096.514893	20.506945
3095.905273	69.712982
3095.295410	49.201668
3094.685791	16.398056
3094.075684	24.593336
3093.465820	32.786118
3092.855713	40.976402
3092.245361	36.873142
3091.635254	61.445869
3091.024658	40.957668
3090.414307	32.761139
3089.803711	36.850662
3089.193115	61.408409
3088.582275	61.399048
3087.971436	24.555874
3087.360596	53.196281
3086.749512	49.096771
3086.138428	24.544643
3085.527100	40.901501
3084.915771	32.716209
3084.304443	65.422440
3083.692871	36.794510
3083.081299	40.876553
3082.469482	32.696255
3081.857910	40.864086
3081.245850	40.857853
3080.634033	44.936779
3080.021973	28.591770
3079.409668	32.671322
3078.797607	28.583046
3078.185059	53.074699
3077.572754	36.738415
3076.960205	65.302773
3076.347656	61.212009
3075.734863	57.122490
3075.122070	28.556885
3074.509033	53.026119
3073.895996	16.313240
3073.282959	53.009933
3072.669922	57.078907
3072.056641	73.375961
3071.443115	69.288940
3070.829834	69.278366
3070.216064	61.118633
3069.602539	65.183258
3068.988770	57.026638
3068.375000	40.727093
3067.760986	28.504612
3067.146973	28.500259
3066.532715	48.850124
3065.918701	61.053329
3065.304199	20.348001
3064.689941	36.620808
3064.075439	36.615215
3063.460693	36.609623
3062.846191	48.805370
3062.231445	65.063889
3061.616455	12.197615
3061.001465	52.848255
3060.386475	60.969440
3059.771240	36.576073
3059.156006	28.443710
3058.540771	32.502129
3057.925293	36.559307
3057.309814	48.738293
3056.694092	40.609035
3056.078369	77.145378
3055.462646	56.835274
3054.846680	44.649460
3054.230713	68.993156
3053.614502	93.329414
3052.998291	44.628983
3052.382080	44.622162
3051.765625	32.447517
3051.149170	48.663834
3050.532715	40.546993
3049.916016	28.378555
3049.299316	68.908813
3048.682373	32.422714
3048.065430	56.731075
3047.448486	20.257999
3046.831299	56.713722
3046.214111	20.251802
3045.596680	76.945076
3044.979248	72.884178
3044.361816	36.436516
3043.744141	32.383057
3043.126465	40.472630
3042.508545	24.279861
3041.890869	28.322170
3041.272705	48.544865
3040.654785	60.671791
3040.036621	60.662506
3039.418213	48.522579
3038.799805	32.343433
3038.181396	48.507725
3037.562988	40.416916
3036.944336	36.369656
3036.325439	28.283180
3035.706543	64.637375
3035.087646	72.705910
3034.468750	68.656181
3033.849609	64.607689
3033.230469	52.485706
3032.611084	48.440926
3031.991699	0.000000
3031.372070	76.674644
3030.752441	80.697792
3030.132813	64.548340
3029.513184	48.403843
3028.893066	56.462498
3028.273193	100.810448
3027.653076	56.445202
3027.032959	48.374187
3026.412598	36.275082
3025.792480	44.329418
3025.171875	72.527939
3024.551270	52.373260
3023.930664	60.421425
3023.310059	84.577034
3022.689209	44.295464
3022.068115	80.524864
3021.447266	80.512527
3020.826172	84.525192
3020.204834	76.463455
3019.583496	64.380402
3018.962158	52.301060
3018.340576	64.360664
3017.718994	48.263100
3017.097412	56.298317
3016.475586	56.289684
3015.853760	52.260979
3015.231689	56.272423
3014.609619	68.320320
3013.987549	48.218712
3013.365234	72.316978
3012.742920	60.254902
3012.120361	60.245663
3011.497803	84.330986
3010.875244	76.287758
3010.252441	56.203411
3009.629639	36.125221
3009.006836	60.199467
3008.383789	52.164864
3007.760498	40.120663
3007.137451	48.137409
3006.514160	24.065010
3005.890625	68.173737
3005.267090	96.230499
3004.643555	52.116856
3004.019775	72.150726
3003.395996	56.108616
3002.772217	72.128578
3002.148193	56.091393
3001.524170	52.076866
3000.899902	80.105957
3000.275635	88.103027
2999.651367	68.069160
2999.026855	44.037987
2998.402344	92.065292
2997.777588	76.042259
2997.152832	76.030579
2996.528076	64.015915
2995.903076	64.006088
2995.278076	95.994385
2994.653076	67.985580
2994.027832	103.961967
2993.402344	79.958466
2992.777100	67.954254
2992.151367	55.953728
2991.525879	111.890266
2990.900146	103.882141
2990.274414	91.881622
2989.648438	63.907825
2989.022461	71.885254
2988.396240	91.839272
2987.770264	115.779541
2987.143799	103.786400
2986.517578	87.805763
2985.891113	111.735611
2985.264404	67.829048
2984.637695	95.743942
2984.010986	87.751785
2983.384033	107.678818
2982.757080	143.549683
2982.130127	107.645714
2981.502930	131.546753
2980.875732	115.583916
2980.248291	147.446457
2979.620850	123.517227
2978.993408	123.498230
2978.365723	119.496033
2977.738037	123.460243
2977.110107	127.423233
2976.482178	135.366364
2975.854248	167.191544
2975.226074	151.245270
2974.597900	151.222000
2973.969482	167.114395
2973.341309	163.110382
2972.712646	194.906799
2972.083984	167.037262
2971.455322	198.823288
2970.826660	226.623672
2970.197754	218.638306
2969.568604	238.477814
2968.939697	266.259247
2968.310547	250.324631
2967.681152	262.204498
2967.051758	285.997223
2966.422363	266.095337
2965.792725	309.734955
2965.163086	317.627960
2964.533203	361.246185
2963.903564	381.036194
2963.273438	333.355347
2962.643311	361.079346
2962.013184	396.729370
2961.383057	412.535004
2960.752686	396.607178
2960.122314	396.546112
2959.491699	436.133545
2958.861084	408.316681
2958.230225	491.489990
2957.599609	459.710114
2956.968506	479.451355
2956.337646	499.186462
2955.706299	499.109558
2955.075195	439.623993
2954.443848	506.875702
2953.812500	483.041443
2953.180908	530.471985
2952.549316	534.348328
2951.917725	546.138611
2951.285889	585.623596
2950.653809	625.096375
2950.021973	577.531677
2949.389893	628.858765
2948.757568	569.444641
2948.125244	632.618774
2947.492920	553.456055
2946.860352	533.607483
2946.227783	576.997681
2945.595215	489.977234
2944.962402	454.344299
2944.329590	470.075073
2943.696533	418.657776
2943.063477	426.491180
2942.430420	347.457733
2941.797119	315.821960
2941.163574	288.143066
2940.530273	315.724518
2939.896729	319.621765
2939.262939	311.681793
2938.629150	327.412628
2937.995361	319.473877
2937.361328	299.707001
2936.727295	319.375275
2936.093262	354.806671
2935.458984	299.568268
2934.824707	346.815002
2934.190186	378.285248
2933.555664	354.587677
2932.921143	425.439545
2932.286377	433.251190
2931.651367	393.803894
2931.016602	417.367706
2930.381592	519.660706
2929.746338	456.601013
2929.111084	480.144135
2928.475830	554.835022
2927.840332	566.552551
2927.204834	637.273193
2926.569336	629.308411
2925.933594	660.671753
2925.297607	668.433655
2924.661865	778.408386
2924.025879	790.080383
2923.389648	774.237793
2922.753418	746.611450
2922.117188	711.135742
2921.480713	773.879028
2920.844238	710.916077
2920.207764	718.660461
2919.571045	738.181885
2918.934082	753.771423
2918.297363	781.131897
2917.660156	722.140991
2917.023193	690.636841
2916.385986	721.917847
2915.748779	729.651978
2915.111328	753.072693
2914.473877	674.523376
2913.836182	725.392639
2913.198486	733.121338
2912.560791	701.649353
2911.922852	689.783264
2911.284912	728.862732
2910.646729	697.405945
2910.008545	740.389587
2909.370361	795.110291
2908.731934	794.987305
2908.093506	877.091736
2907.455078	798.656433
2906.816406	884.649170
2906.177490	1017.580566
2905.538574	943.073059
2904.899658	985.965332
2904.260498	1060.139893
2903.621338	1118.646240
2902.982178	1122.383911
2902.342773	1169.131836
2901.703369	1122.036621
2901.063721	1149.225464
2900.424072	1070.881104
2899.784424	1137.146606
2899.144531	1086.178101
2898.504639	992.253784
2897.864502	1113.183350
2897.224365	1030.999634
2896.583984	1097.219849
2895.943848	991.639526
2895.303223	975.872070
2894.662842	948.400818
2894.021973	948.253967
2893.381348	994.927246
2892.740479	951.861450
2892.099609	998.519653
2891.458496	998.364990
2890.817383	1037.203003
2890.176025	1029.244995
2889.534668	1075.862305
2888.893311	1048.413452
2888.251709	1196.331177
2887.610107	1192.249634
2886.968262	1219.334351
2886.326416	1304.836182
2885.684570	1218.956543
2885.042480	1277.175171
2884.400391	1366.521362
2883.758057	1405.235840
2883.115723	1401.126099
2882.473389	1326.972046
2881.830811	1435.709106
2881.188232	1501.620117
2880.545410	1443.043335
2879.902588	1415.596680
2879.259766	1415.377197
2878.616699	1415.157837
2877.973633	1411.051270
2877.330322	1352.533691
2876.687012	1266.832153
2876.043457	1286.062744
2875.399902	1130.471924
2874.756348	1223.516968
2874.112549	1184.491455
2873.468750	1102.765259
2872.824707	1129.770874
2872.180664	1001.497192
2871.536621	1036.272461
2870.892334	1028.350586
2870.248047	1051.470825
2869.603760	1000.875977
2868.958984	1055.023315
2868.314453	1058.737793
2867.669678	1128.369629
2867.024902	1174.718018
2866.379883	1077.626953
2865.734863	1050.329346
2865.089844	1112.168823
2864.444580	1166.239990
2863.799316	1119.571533
2863.153809	1123.271118
2862.508301	1123.096802
2861.862549	1033.863159
2861.216797	944.657104
2860.571045	847.736816
2859.925049	828.253479
2859.279053	785.557739
2858.632813	634.539246
2857.986572	634.440735
2857.340332	545.379578
2856.693848	502.754150
2856.047363	529.743286
2855.400635	398.212280
2854.753906	402.015961
2854.107178	413.548340
2853.460205	343.926025
2852.813232	390.237457
2852.166016	378.587433
2851.518799	378.528625
2850.871338	335.988495
2850.223877	405.440369
2849.576416	389.934418
2848.928711	358.992737
2848.281006	439.987244
2847.633301	409.047363
2846.985352	497.725555
2846.337158	428.208923
2845.688965	470.570892
2845.040771	501.350067
2844.392578	520.551819
2843.743896	605.288391
2843.095459	582.065857
2842.446777	620.516785
2841.798096	643.541565
2841.149170	693.529785
2840.500244	843.663391
2839.851074	870.494385
2839.202148	843.401001
2838.552734	874.074280
2837.903320	908.587830
2837.253906	927.693298
2836.604492	946.792786
2835.954834	892.771362
2835.304932	892.632507
2834.655029	846.330200
2834.005127	746.193237
2833.354980	711.465332
2832.704834	692.128845
2832.054688	615.129883
2831.404297	541.998901
2830.753906	561.131348
2830.103271	503.402557
2829.452637	411.112122
2828.801758	414.889740
2828.150879	345.687622
2827.500000	360.995331
2826.848877	314.861786
2826.197754	287.938538
2825.546387	322.440948
2824.895020	303.200836
2824.243408	272.454529
2823.591797	272.412109
2822.940186	245.516342
2822.288330	222.464539
2821.636475	195.584900
2820.984619	210.892059
2820.332520	207.025406
2819.680176	164.827896
2819.028076	218.458755
2818.375488	226.088745
2817.723145	183.907959
2817.070557	222.187500
2816.417725	206.832001
2815.764893	183.822021
2815.112061	191.451447
2814.458984	191.421616
2813.805908	183.736115
2813.152832	141.607849
2812.499512	187.505508
2811.845947	160.693954
2811.192383	141.541656
2810.538818	195.067551
2809.885010	156.794571
2809.231201	183.535767
2808.577393	129.984238
2807.923340	172.011139
2807.269287	179.628082
2806.614990	141.387283
2805.960693	156.647980
2805.306152	164.263718
2804.651611	122.223709
2803.997070	179.488083
2803.342285	126.003891
2802.687500	122.166542
2802.032471	148.867249
2801.377441	148.844025
2800.722412	167.900406
2800.067139	129.720978
2799.411621	164.033295
2798.756348	141.122910
2798.100586	133.473816
2797.445068	144.891830
2796.789307	121.995132
2796.133301	179.152390
2795.477539	163.879807
2794.821289	167.664795
2794.165283	137.158875
2793.509033	133.328094
2792.852539	148.542404
2792.196045	148.519226
2791.539551	144.688446
2790.882813	182.735825
2790.226074	125.611267
2789.569092	152.232315
2788.912109	163.624191
2788.255127	144.575546
2787.597900	95.100639
2786.940430	140.726974
2786.283203	133.099319
2785.625488	144.485260
2784.968018	121.652802
2784.310303	117.832741
2783.652588	163.419891
2782.994629	129.195541
2782.336426	151.971008
2781.678467	136.752548
2781.020264	136.731186
2780.361816	125.317337
2779.703369	140.485367
2779.044922	136.667099
2778.386230	163.215759
2777.727539	129.034149
2777.068604	113.835876
2776.409668	113.818085
2775.750732	113.800293
2775.091553	163.088257
2774.432373	132.725510
2773.772949	113.746941
2773.113525	159.220825
2772.453857	140.244034
2771.794189	159.171051
2771.134521	128.832611
2770.474609	121.235260
2769.814697	170.460434
2769.154541	155.284103
2768.494385	143.899353
2767.833984	166.594238
2767.173584	147.639984
2766.513184	132.476700
2765.852539	151.378265
2765.191895	166.490036
2764.531006	155.114182
2763.870117	177.785995
2763.209229	155.065643
2762.548096	151.259888
2761.886719	136.112610
2761.225586	151.212570
2760.563965	128.510559
2759.902588	151.165237
2759.240967	162.477203
2758.579102	143.562042
2757.917236	185.090500
2757.255371	158.624161
2756.593262	181.256378
2755.931152	177.452423
2755.269043	143.449722
2754.606689	166.073669
2753.944092	181.142914
2753.281494	192.434204
2752.618896	147.132538
2751.956055	158.425613
2751.293213	165.943695
2750.630371	184.771988
2749.967285	150.810654
2749.303955	154.556717
2748.640625	184.685196
2747.977295	192.193253
2747.313721	154.484100
2746.650146	207.202316
2745.986572	173.269333
2745.322754	180.774460
2744.658691	154.387314
2743.994873	218.367355
2743.330566	218.333145
2742.666504	199.480057
2742.002197	203.211975
2741.337646	203.180130
2740.673096	195.624283
2740.008545	203.116455
2739.343750	225.649567
2738.678955	225.614197
2738.013916	172.943771
2737.348877	214.266296
2736.683594	176.648026
2736.018311	214.199112
2735.353027	169.078049
2734.687500	225.402054
2734.021973	191.561707
2733.356201	214.064804
2732.690430	221.541107
2732.024658	236.523743
2731.358643	213.964111
2730.692383	251.462219
2730.026367	228.907303
2729.359863	213.863434
2728.693604	277.603699
2728.027100	225.048782
2727.360352	288.767303
2726.693604	284.972351
2726.026855	288.676666
2725.359863	262.392181
2724.692871	296.081848
2724.025635	247.320694
2723.358398	303.482300
2722.691162	280.958038
2722.023682	299.641510
2721.355957	318.319153
2720.688477	288.314423
2720.020508	340.681763
2719.352783	363.087280
2718.684814	284.436096
2718.016602	314.327362
2717.348389	303.053802
2716.680176	303.006226
2716.011719	276.777039
2715.343262	269.254272
2714.674561	340.254028
2714.005859	261.692780
2713.337158	265.389557
2712.668213	235.449509
2711.999023	269.042877
2711.329834	231.639435
2710.660645	231.603043
2709.991455	242.771484
2709.321777	246.467712
2708.652344	231.493896
2707.982666	268.789368
2707.312988	257.549347
2706.643066	253.776855
2705.972900	276.125519
2705.302979	253.697098
2704.632813	249.926971
2703.962402	205.131683
2703.291992	234.932083
2702.621582	264.723114
2701.950928	223.674500
2701.280273	242.275940
2700.609375	197.517014
2699.938477	197.485962
2699.267334	219.808304
2698.596191	167.624039
2697.925049	223.463562
2697.253662	201.085587
2696.582031	234.562943
2695.910645	212.190247
2695.239014	197.268661
2694.567139	197.237640
2693.895264	208.369247
2693.223145	208.336472
2692.551270	204.583984
2691.878906	178.517929
2691.206543	204.519608
2690.534180	189.615616
2689.861816	185.868408
2689.189209	178.405594
2688.516357	211.823303
2687.843506	185.780670
2687.170654	170.891312
2686.497559	222.866638
2685.824463	163.409805
2685.151123	189.376999
2684.477783	189.347183
2683.804199	178.181061
2683.130615	167.018448
2682.457031	181.835892
2681.783203	200.359024
2681.109375	211.456787
2680.435303	196.586746
2679.761230	196.555786
2679.086914	200.232849
2678.412598	215.031036
2677.738281	207.583481
2677.063721	218.669571
2676.389160	196.401047
2675.714355	218.600677
2675.039551	159.294037
2674.364502	207.420013
2673.689453	233.310760
2673.014404	240.679520
2672.339111	196.215454
2671.663574	185.079742
2670.988037	214.658676
2670.312500	210.924408
2669.636719	203.491470
2668.960938	184.963089
2668.285156	177.536575
2667.609131	203.395264
2666.932861	225.548279
2666.256592	170.058777
2665.580322	170.031967
2664.903809	203.267029
2664.227295	177.368713
2663.550781	206.897537
2662.874023	217.946945
2662.197021	236.379745
2661.520020	214.185364
2660.843018	232.612930
2660.165771	228.884552
2659.488525	221.466232
2658.811035	250.955475
2658.133545	162.357330
2657.455811	258.255005
2656.778076	258.214264
2656.100342	191.786057
2655.422363	239.694733
2654.744385	180.664444
2654.066162	243.305542
2653.387939	206.408493
2652.709473	232.172897
2652.031006	232.136261
2651.352539	180.521927
2650.673828	209.961746
2649.994873	206.245636
2649.316162	228.307343
2648.636963	213.544113
2647.958008	261.366180
2647.278809	224.518585
2646.599365	261.283661
2645.919922	231.806625
2645.240479	253.843353
2644.560791	217.020187
2643.880859	198.597275
2643.201172	227.983078
2642.520996	268.389282
2641.841064	191.151215
2641.160889	209.498047
2640.480469	158.017410
2639.800049	213.106094
2639.119629	180.009460
2638.438965	216.711838
2637.758301	179.952591
2637.077393	205.627594
2636.396484	190.909744
2635.715332	227.587173
2635.034180	150.477417
2634.353027	183.480042
2633.671631	227.479279
2632.989990	231.111771
2632.308350	183.393036
2631.626709	198.033173
2630.944824	216.335373
2630.262939	179.639954
2629.581055	219.932510
2628.898926	205.237885
2628.216553	194.212280
2627.534180	227.155792
2626.851807	208.803757
2626.169189	219.758667
2625.486572	183.103256
2624.803711	223.350632
2624.120850	183.045334
2623.437988	193.997360
2622.754883	172.008179
2622.071533	215.891006
2621.388184	226.832611
2620.704834	182.900589
2620.021240	197.501373
2619.337646	168.215286
2618.653809	142.594742
2617.969971	212.030411
2617.286133	153.514969
2616.602051	175.417908
2615.917725	182.698059
2615.233398	189.975906
2614.549072	182.640228
2613.864502	226.438019
2613.179932	208.143936
2612.495117	208.110977
2611.810303	200.777054
2611.125488	211.694992
2610.440430	211.661469
2609.755127	200.681686
2609.069824	218.890793
2608.384521	196.970520
2607.698975	185.998245
2607.013428	255.251266
2606.327637	226.043884
2605.641846	218.717499
2604.956055	207.748703
2604.270020	233.224747
2603.583740	196.752197
2602.897461	178.506119
2602.211182	174.835419
2601.524658	163.882233
2600.838135	233.040024
2600.151367	192.955688
2599.464600	203.845398
2598.777832	196.534042
2598.090820	214.697601
2597.403564	251.047226
2596.716309	200.078384
2596.029053	218.232727
2595.341553	192.741684
2594.654053	239.979889
2593.966309	221.764420
2593.278564	225.364166
2592.590820	203.522446
2591.902832	221.658936
2591.214600	236.156494
2590.526367	247.016830
2589.838135	192.497284
2589.149658	272.358612
2588.461182	261.422791
2587.772461	250.490433
2587.083740	217.783218
2586.394775	214.119522
2585.705811	232.228378
2585.016846	210.423584
2584.327637	224.899857
2583.638184	221.237320
2582.948975	239.333542
2582.259277	228.418488
2581.569824	199.381317
2580.879883	210.223282
2580.190186	235.557663
2579.500244	213.779938
2578.810059	173.895050
2578.119873	199.223114
2577.429688	206.434814
2576.739258	210.023117
2576.048584	170.164124
2575.358154	217.196304
2574.667236	235.258636
2573.976563	242.458847
2573.285645	217.092834
2572.594482	231.528915
2571.903320	264.045715
2571.212158	224.222382
2570.520752	213.339020
2569.829102	238.612518
2569.137451	206.041702
2568.445801	242.150894
2567.753906	195.135391
2567.062012	238.460907
2566.370117	238.423004
2565.677979	176.982895
2564.985596	288.905731
2564.293213	227.477112
2563.600830	220.220612
2562.908203	205.747208
2562.215332	209.323517
2561.522705	220.115601
2560.829590	248.943634
2560.136719	234.474838
2559.443604	238.044296
2558.750244	234.400284
2558.056885	209.123917
2557.363525	201.880646
2556.669922	216.266281
2555.976074	198.212570
2555.282227	223.404083
2554.588379	198.149521
2553.894287	219.730865
2553.200195	201.688049
2552.505859	230.463974
2551.811523	205.224319
2551.117188	208.791519
2550.422607	237.552551
2549.727783	208.725082
2549.032959	248.271362
2548.338135	230.244034
2547.643066	201.431473
2546.947998	215.785080
2546.252686	179.792282
2545.557373	215.716400
2544.861816	215.682053
2544.166260	226.430115
2543.470703	244.361847
2542.774902	219.172043
2542.078857	204.767502
2541.382813	190.367538
2540.686768	229.841171
2539.990479	215.441788
2539.294189	233.358109
2538.597656	218.962723
2537.901123	175.860077
2537.204346	211.716171
2536.507568	240.385147
2535.810791	193.712387
2535.113770	222.375092
2534.416504	204.409042
2533.719238	236.646454
2533.021973	222.268814
2532.324463	261.661896
2531.626953	200.694962
2530.929199	204.246246
2530.231445	222.127182
2529.533447	222.091782
2528.835449	243.545700
2528.137451	254.249832
2527.439209	218.405182
2526.740723	218.370361
2526.042236	214.756287
2525.343750	254.087753
2524.645020	225.422195
2523.946289	243.274048
2523.247314	221.773331
2522.548340	246.772888
2521.849121	261.036926
2521.149902	218.091965
2520.450684	232.356018
2519.751221	210.874130
2519.051514	253.723297
2518.351807	235.817841
2517.652100	282.221771
2516.952148	242.886322
2516.252197	235.705002
2515.552002	264.233124
2514.851807	224.919342
2514.151367	228.453033
2513.450928	217.709549
2512.750244	231.948563
2512.049561	217.640060
2511.348877	228.307220
2510.647949	238.970978
2509.946777	281.726776
2509.245605	270.985016
2508.544434	213.901398
2507.843018	278.027405
2507.141602	228.088638
2506.439941	245.868805
2505.738281	228.015808
2505.036377	245.790283
2504.334473	235.066208
2503.632568	245.711792
2502.930420	202.946884
2502.228027	245.633301
2501.525635	242.034729
2500.823242	263.348663
2500.120605	252.632004
2499.417969	266.822174
2498.715088	227.651871
2498.012207	248.954453
2497.309082	248.914673
2496.605957	245.319534
2495.902588	277.273438
2495.199219	241.686920
2494.495605	252.309250
2493.791992	262.928162
2493.088379	248.676086
2492.384521	273.499969
2491.680664	287.661774
2490.976563	227.251968
2490.272461	241.416626
2489.568115	227.179321
2488.863770	269.732300
2488.159180	273.237701
2487.454590	266.098083
2486.749756	230.581451
2486.044922	273.106659
2485.339844	244.692795
2484.634766	262.382172
2483.929688	258.795074
2483.224365	237.486252
2482.519043	255.168274
2481.813477	287.018372
2481.107666	244.458023
2480.402100	276.299652
2479.696045	258.546753
2478.990234	251.423035
2478.284180	233.679794
2477.577881	276.122833
2476.871582	251.302353
2476.165039	272.495544
2475.458496	265.375275
2474.751953	268.870544
2474.045166	297.125153
2473.338379	251.101288
2472.631348	247.525009
2471.924072	293.446960
2471.217041	282.795166
2470.509521	229.734268
2469.802246	261.501740
2469.094482	272.059601
2468.386963	254.352646
2467.679199	261.376129
2466.971191	247.208084
2466.263184	257.761414
2465.554932	264.780975
2464.846680	331.805634
2464.138428	243.520447
2463.429932	299.940887
2462.721436	289.308380
2462.012695	225.765488
2461.303955	215.148239
2460.594971	268.010590
2459.885986	264.441742
2459.176758	274.975342
2458.467529	281.980804
2457.758057	264.314606
2457.048584	232.559586
2456.338867	278.322144
2455.629150	257.142517
2454.919434	274.710968
2454.209473	281.709686
2453.499512	299.268555
2452.789307	288.659821
2452.078857	260.456116
2451.368408	295.605469
2450.657959	225.187103
2449.947266	253.294861
2449.236572	277.876160
2448.525879	305.966431
2447.814697	253.172989
2447.103760	302.352570
2446.392578	256.606934
2445.681152	270.624146
2444.969727	274.094788
2444.258301	270.537323
2443.546631	323.187531
2442.834717	256.401123
2442.122803	270.407104
2441.410889	280.897339
2440.698730	322.980103
2439.986572	277.297089
2439.274170	277.252594
2438.561768	308.788757
2437.849121	298.213959
2437.136475	343.767975
2436.423584	273.567322
2435.710693	259.496552
2434.997803	294.516357
2434.284424	266.424377
2433.571289	266.381592
2432.857910	238.303146
2432.144287	266.296021
2431.430908	301.286591
2430.717041	276.718811
2430.003174	276.674347
2429.289307	276.629913
2428.575195	266.082214
2427.861084	304.545166
2427.146729	272.996643
2426.432373	255.455795
2425.717773	328.890228
2425.003174	293.854675
2424.288330	248.337234
2423.573486	272.777344
2422.858643	272.733490
2422.143555	283.177734
2421.428223	272.645813
2420.712891	283.086700
2419.997559	290.029846
2419.281982	310.945862
2418.566162	279.456970
2417.850586	321.323822
2417.134521	317.780060
2416.418457	300.271332
2415.702393	282.768219
2414.986084	282.722748
2414.269775	282.677246
2413.553223	289.610352
2412.836670	286.075043
2412.120117	279.052704
2411.403076	306.908600
2410.686279	275.475891
2409.969238	268.458618
2409.251953	320.704132
2408.534668	275.342926
2407.817383	317.116150
2407.099854	306.612427
2406.382080	278.693695
2405.664307	323.929291
2404.946533	334.324799
2404.228516	271.595154
2403.510498	288.958588
2402.792236	285.431213
2402.073975	295.826172
2401.355469	285.339294
2400.636963	281.814178
2399.918213	302.640564
2399.199463	319.982147
2398.480469	253.858002
2397.761475	305.971313
2397.042480	298.969269
2396.323242	291.969452
2395.603760	291.922424
2394.884277	260.603027
2394.164795	284.880096
2393.445068	305.675720
2392.725098	333.410675
2392.005127	291.687347
2391.285156	329.831329
2390.564941	288.122009
2389.844727	295.017151
2389.124268	315.790985
2388.403809	291.452393
2387.683105	319.158325
2386.962402	346.855286
2386.241455	277.439514
2385.520508	260.057617
2384.799316	312.018829
2384.078125	287.704285
2383.356689	301.520935
2382.635254	325.728699
2381.913818	346.464020
2381.192139	339.479980
2380.470215	342.888763
2379.748291	304.740845
2379.026367	311.616516
2378.304199	315.028107
2377.581787	301.132141
2376.859375	325.308655
2376.136963	307.955322
2375.414307	328.663330
2374.691650	318.233124
2373.968750	328.557281
2373.245850	342.336029
2372.522705	338.823395
2371.799316	290.373169
2371.076172	273.044983
2370.352783	311.013702
2369.629150	335.149567
2368.905518	338.550049
2368.181641	321.225220
2367.457764	290.092072
2366.733643	314.215668
2366.009521	327.974396
2365.285400	327.921417
2364.561035	331.319733
2363.836426	293.308624
2363.111816	293.261261
2362.387207	293.213898
2361.662354	306.962616
2360.937256	341.397644
2360.212158	327.550903
2359.487061	310.261230
2358.761719	323.998291
2358.036377	310.161011
2357.310791	358.350372
2356.584961	323.841248
2355.859375	354.790009
2355.133301	323.736603
2354.407471	278.919434
2353.681152	368.389587
2352.955078	337.349030
2352.228516	320.085602
2351.502197	309.710175
2350.775635	344.066803
2350.048828	364.651855
2349.322021	350.834656
2348.594971	378.289948
2347.867920	326.652130
2347.140869	326.599304
2346.413330	367.794464
2345.686035	312.746582
2344.958496	353.930634
2344.230713	343.566406
2343.502930	353.816162
2342.775146	329.717072
2342.047119	374.305695
2341.319092	374.245148
2340.590820	353.587280
2339.862305	353.530060
2339.133789	326.018646
2338.405273	325.965912
2337.676514	319.051819
2336.947754	325.860413
2336.218750	336.096344
2335.489746	360.044952
2334.760498	342.844452
2334.031250	339.361053
2333.301758	346.160797
2332.572266	349.531555
2331.842529	359.753632
2331.112793	369.972382
2330.382813	342.511566
2329.652832	352.729797
2328.922607	373.216705
2328.192383	393.696991
2327.462158	355.981354
2326.731689	376.457764
2326.000977	287.430267
2325.270264	372.914581
2324.539307	369.433502
2323.808350	348.852875
2323.077393	348.796356
2322.346191	328.225739
2321.614746	389.704926
2320.883301	358.880585
2320.151855	348.570374
2319.420166	358.764282
2318.688232	334.792389
2317.956299	341.569519
2317.224365	382.495880
2316.492188	338.044220
2315.760010	358.473633
2315.027588	372.069458
2314.295166	358.357422
2313.562500	351.474579
2312.829590	371.888519
2312.096924	433.231018
2311.363770	361.535767
2310.630615	378.527954
2309.897461	351.189697
2309.164063	371.587067
2308.430664	344.258759
2307.697021	378.282440
2306.963379	395.258057
2306.229492	320.243347
2305.495605	398.536102
2304.761719	374.631287
2304.027344	289.440826
2303.293213	377.914368
2302.558838	388.065277
2301.824219	411.826996
2301.089600	391.342316
2300.354736	357.254547
2299.619873	391.215271
2298.885010	336.730652
2298.149658	397.889832
2297.414551	384.224365
2296.679199	360.364349
2295.943604	360.305847
2295.208008	390.834381
2294.472412	370.382874
2293.736572	363.527802
2293.000488	383.850220
2292.264404	404.165985
2291.528320	380.329742
2290.791992	397.244202
2290.055420	356.443298
2289.318848	403.903473
2288.582275	417.412231
2287.845459	363.055725
2287.108398	386.744171
2286.371582	376.505524
2285.634277	400.184082
2284.896973	423.854919
2284.159668	355.980286
2283.422119	393.209534
2282.684570	393.145630
2281.946777	406.636261
2281.208740	379.465485
2280.470703	403.116547
2279.732666	409.824982
2278.994385	426.690521
2278.256104	409.691742
2277.517578	379.157135
2276.779053	399.404175
2276.040283	358.728455
2275.301514	433.111084
2274.562500	358.611786
2273.823486	426.205078
2273.084229	399.079498
2272.344971	351.673889
2271.605469	341.473877
2270.865967	324.516449
2270.126221	419.098877
2269.386475	388.617157
2268.646484	361.524109
2267.906494	429.028870
2267.166260	408.693268
2266.426025	422.135101
2265.685547	391.677612
2264.945068	408.493774
2264.204346	334.167786
2263.463623	394.861267
2262.722656	381.299652
2261.981689	354.247314
2261.240723	398.041687
2260.499268	428.331055
2259.758057	435.005585
2259.016602	411.333649
2258.274902	411.266663
2257.533203	428.052155
2256.791260	390.913086
2256.049316	374.002472
2255.307129	387.416931
2254.564941	387.353821
2253.822754	394.026215
2253.080322	380.493225
2252.337646	403.997772
2251.594971	366.904877
2250.852051	400.500580
2250.109131	434.085358
2249.366211	423.921265
2248.623047	433.943909
2247.879639	363.242645
2247.136230	410.262787
2246.392578	423.644958
2245.648926	416.852478
2244.905273	440.312683
2244.161377	409.995361
2243.417236	406.568451
2242.673096	386.345032
2241.928955	413.153839
2241.184570	409.728027
2240.439941	423.092743
2239.695313	399.522430
2238.950439	443.095459
2238.205566	459.804352
2237.460693	432.883850
2236.715576	436.168396
2235.970215	429.388031
2235.224854	392.423492
2234.479492	439.308441
2233.733887	409.060211
2232.988037	398.936249
2232.242188	402.223022
2231.496338	422.265228
2230.750244	428.897858
2230.003906	412.076782
2229.257568	408.659851
2228.511230	452.131744
2227.764648	408.526459
2227.017822	391.719604
2226.270996	431.825470
2225.523926	408.326416
2224.776855	438.377258
2224.029785	401.501373
2223.282471	428.198212
2222.534912	424.783539
2221.787354	454.812012
2221.039795	397.895508
2220.291992	387.801178
2219.543945	404.450684
2218.795898	397.700592
2218.047852	384.269714
2217.299561	410.934357
2216.551025	380.803772
2215.802490	464.237518
2215.053955	420.750854
2214.305176	447.392090
2213.556152	433.966156
2212.807129	410.531647
2212.058105	407.127441
2211.308838	430.416870
2210.559326	433.682526
2209.809814	433.611633
2209.060303	486.899597
2208.310547	406.794800
2207.560547	430.065155
2206.810547	406.661804
2206.060303	423.259033
2205.310059	403.196594
2204.559814	409.793976
2203.809326	436.375885
2203.058594	426.312805
2202.307861	442.893188
2201.557129	402.867004
2200.806152	452.735107
2200.054932	449.332672
2199.303711	419.308533
2198.552246	455.840240
2197.800781	422.498108
2197.049316	385.840637
2196.297607	452.290863
2195.545654	442.241455
2194.793701	412.247864
2194.041504	425.476532
2193.289307	395.495483
2192.537109	471.858521
2191.784668	465.136475
2191.031982	421.876160
2190.279297	418.485779
2189.526367	408.454956
2188.773438	474.792633
2188.020508	398.362152
2187.267090	448.084015
2186.513916	497.789612
2185.760498	447.937286
2185.006836	467.768982
2184.253174	427.888733
2183.499268	490.830719
2182.745361	470.855011
2181.991211	404.471130
2181.237061	464.071167
2180.482666	424.224121
2179.728271	473.860229
2178.973877	473.782593
2178.218994	463.767090
2177.464355	450.442749
2176.709229	526.534241
2175.954346	466.850098
2175.198975	450.221313
2174.443848	470.006958
2173.688232	446.764343
2172.932861	453.308746
2172.177002	423.459900
2171.421387	449.852386
2170.665283	469.621796
2169.909424	453.011505
2169.153076	423.182220
2168.396729	442.946228
2167.640381	472.618835
2166.883789	479.150299
2166.127197	475.767761
2165.370361	465.779510
2164.613525	429.371643
2163.856445	452.417419
2163.099365	505.171600
2162.342041	455.570221
2161.584473	429.089935
2160.826904	462.020996
2160.069336	478.443237
2159.311523	451.972168
2158.553711	422.211273
2157.795654	514.485535
2157.037354	474.831757
2156.279053	507.722839
2155.520752	445.008636
2154.762207	481.189575
2154.003662	441.567230
2153.244873	487.621063
2152.485840	533.659729
2151.726807	507.222839
2150.967773	434.691040
2150.208252	480.715668
2149.448975	497.096893
2148.689453	510.181213
2147.929688	467.315033
2147.169922	506.723206
2146.410156	470.451385
2145.650146	509.846039
2144.889893	486.740753
2144.129639	509.678497
2143.369141	512.882446
2142.608643	470.065002
2141.847900	446.981354
2141.087158	499.485291
2140.326416	469.833252
2139.565186	430.335938
2138.804199	499.239014
2138.042725	446.614105
2137.281494	413.706818
2136.519775	456.315826
2135.758301	492.346161
2134.996338	495.546997
2134.234619	502.027954
2133.472412	501.945404
2132.710449	521.543762
2131.947998	514.898743
2131.185547	488.581482
2130.423096	504.893768
2129.660400	540.868652
2128.897705	527.669861
2128.134766	475.152405
2127.371826	504.561615
2126.608643	517.581909
2125.845215	510.946167
2125.081787	507.587341
2124.318359	494.406921
2123.554688	513.967651
2122.790771	556.433838
2122.026855	481.072418
2121.262939	513.713867
2120.498779	494.000153
2119.734375	516.815735
2118.969971	503.648865
2118.205322	457.787201
2117.440674	549.254211
2116.676025	444.561127
2115.911133	500.048920
2115.145996	545.715149
2114.380859	499.884216
2113.615479	486.735168
2112.850098	486.654999
2112.084473	522.496460
2111.318848	502.819977
2110.552979	564.763184
2109.787109	522.238281
2109.020996	554.786743
2108.254883	518.803284
2107.488525	515.455383
2106.722168	518.632263
2105.955566	466.365997
2105.188965	534.765137
2104.422119	541.197449
2103.655029	475.914490
2102.887939	501.909241
2102.120850	563.740173
2101.353516	498.485687
2100.585938	488.630890
2099.818359	550.433350
2099.050781	472.187408
2098.282959	530.716248
2097.514893	602.247314
2096.746826	511.012085
2095.978760	507.673492
2095.210449	549.888916
2094.441895	533.531982
2093.673340	517.180420
2092.904541	517.095093
2092.135742	474.738556
2091.366699	526.677795
2090.597656	617.606567
2089.828369	568.754272
2089.059082	506.920135
2088.289551	591.309265
2087.520020	561.975891
2086.750244	529.404358
2085.980469	470.864777
2085.210449	548.710449
2084.440186	506.418304
2083.670166	532.300598
2082.899658	558.174316
2082.129150	609.996765
2081.358643	551.501709
2080.587891	557.897827
2079.816895	538.347351
2079.045898	538.258423
2078.274902	531.685547
2077.503662	567.253723
2076.732178	583.364563
2075.960693	563.825928
2075.188965	521.614807
2074.417236	553.921692
2073.645264	521.442444
2072.873291	547.262207
2072.101074	530.983276
2071.328857	501.760986
2070.556396	602.013672
2069.783936	579.261475
2069.011230	553.281250
2068.238525	553.189819
2067.465576	585.443298
2066.692627	588.580444
2065.919434	559.382324
2065.145996	520.495178
2064.372559	552.732666
2063.599121	510.627594
2062.825439	568.706299
2062.051514	594.458252
2061.277588	604.050598
2060.503662	594.261658
2059.729248	568.330139
2058.955078	532.721375
2058.180664	539.089417
2057.406006	564.820618
2056.631348	555.046082
2055.856445	587.219055
2055.081543	558.088379
2054.306396	574.123108
2053.531250	590.152466
2052.755859	586.830444
2051.980225	599.628540
2051.204590	557.626709
2050.428955	596.207336
2049.653076	586.442017
2048.877197	573.458191
2048.101074	525.046143
2047.324707	560.385925
2046.548340	602.154114
2045.771851	579.517578
2044.995239	544.012512
2044.218506	582.544128
2043.441528	547.050293
2042.664551	569.481567
2041.887329	543.652222
2041.110107	614.321716
2040.332642	582.061829
2039.555176	572.319580
2038.777466	588.298462
2037.999634	533.559387
2037.221802	594.530884
2036.443726	607.284973
2035.665527	623.247375
2034.887207	562.114502
2034.108765	590.925293
2033.330200	597.249390
2032.551514	593.939941
2031.772705	597.051392
2030.993774	558.439392
2030.214600	596.853455
2029.435425	612.796265
2028.656128	622.318176
2027.876587	599.763916
2027.097046	596.457703
2026.317261	599.565002
2025.537476	554.585754
2024.757446	612.186768
2023.977295	650.540833
2023.197021	563.922180
2022.416626	544.607178
2021.636230	608.577637
2020.855591	586.059082
2020.074707	582.759888
2019.293823	627.483398
2018.512817	643.383850
2017.731689	643.277100
2016.950439	569.573730
2016.168945	623.867676
2015.387451	649.354431
2014.605713	671.634460
2013.823975	626.754761
2013.041992	642.636719
2012.260010	610.563354
2011.477783	626.442627
2010.695435	556.035278
2009.912964	648.600098
2009.130371	594.185181
2008.347656	600.474487
2007.564819	616.342224
2006.781860	619.432800
2005.998779	638.484436
2005.215576	612.843201
2004.432129	641.463684
2003.648682	686.028748
2002.864990	631.679626
2002.081299	583.728088
2001.297363	545.360229
2000.513428	634.553467
1999.729248	599.378052
1998.944946	637.530212
1998.160522	688.418213
1997.375977	615.012146
1996.591309	681.817261
1995.806519	611.622192
1995.021606	681.590576
1994.236572	640.079102
1993.451416	624.052917
1992.666016	633.499390
1991.880615	592.016541
1991.094971	642.835815
1990.309326	636.365234
1989.523438	652.165894
1988.737549	674.322754
1987.951416	623.326782
1987.165161	731.333191
1986.378784	613.581848
1985.592285	667.516846
1984.805664	689.652649
1984.018921	638.696411
1983.232056	673.537842
1982.444946	632.130798
1981.657837	692.369690
1980.870605	657.324219
1980.083130	600.065674
1979.295654	666.628662
1978.507935	650.648254
1977.720093	666.406738
1976.932129	729.752502
1976.144165	666.184875
1975.355957	742.196655
1974.567627	681.819275
1973.779053	656.339966
1972.990479	656.230652
1972.201782	694.157349
1971.412964	703.549133
1970.623901	659.071411
1969.834839	668.465881
1969.045532	681.024719
1968.256226	658.742065
1967.466675	639.633301
1966.677002	687.016357
1965.887207	728.052673
1965.097290	670.962769
1964.307251	702.494873
1963.517090	658.083679
1962.726807	673.790710
1961.936401	683.166809
1961.145874	632.456421
1960.355103	717.718384
1959.564331	698.631348
1958.773315	670.068604
1957.982178	660.476318
1957.191040	717.239868
1956.399658	679.210815
1955.608154	729.635010
1954.816528	656.877808
1954.024780	678.871033
1953.232910	700.856873
1952.440918	719.678894
1951.648682	675.375427
1950.856445	773.081177
1950.063965	684.614807
1949.271484	678.191772
1948.478760	734.848022
1947.685913	687.425476
1946.893066	649.477112
1946.099976	706.109680
1945.306763	696.536621
1944.513428	715.327698
1943.719971	696.304077
1942.926270	715.088867
1942.132568	667.724792
1941.338745	651.867737
1940.544678	724.176575
1939.750610	679.982666
1938.956299	758.557678
1938.161865	701.784729
1937.367310	736.278931
1936.572632	742.447876
1935.777832	761.196533
1934.982910	704.460938
1934.187866	698.054443
1933.392700	660.211487
1932.597290	735.541321
1931.801880	782.560608
1931.006226	754.149292
1930.210571	728.889160
1929.414673	760.179749
1928.618652	734.926941
1927.822510	697.121887
1927.026245	712.703674
1926.229858	747.115051
1925.433350	725.019897
1924.636719	790.798584
1923.839844	737.327759
1923.042969	702.697021
1922.245850	733.944702
1921.448730	746.365967
1920.651367	721.157410
1919.853882	764.925964
1919.056274	730.319458
1918.258545	805.410767
1917.460693	752.008789
1916.662720	745.617310
1915.864624	798.742004
1915.066284	801.740173
1914.267944	764.030762
1913.469360	773.295166
1912.670776	757.514648
1911.871948	751.128479
1911.072998	694.677551
1910.273926	766.520386
1909.474731	753.879578
1908.675415	781.901855
1907.875977	781.770935
1907.076294	791.019775
1906.276611	756.500916
1905.476807	756.374268
1904.676758	787.497559
1903.876587	799.863525
1903.076294	793.481689
1902.275879	743.374084
1901.475342	786.970154
1900.674683	705.656616
1899.873901	821.046936
1899.072998	721.026917
1898.271851	786.443054
1897.470703	833.115540
1896.669312	829.856201
1895.867920	770.451660
1895.066284	792.153564
1894.264526	838.793701
1893.462646	826.182434
1892.660645	766.818176
1891.858521	804.089172
1891.056152	722.935730
1890.253784	800.704041
1889.451172	794.339722
1888.648560	800.435608
1887.845703	738.021179
1887.042725	843.756104
1886.239624	821.823853
1885.436401	746.987305
1884.633057	815.324402
1883.829590	805.853455
1883.025879	811.940063
1882.222168	833.576416
1881.418213	805.448059
1880.614258	823.968811
1879.810059	808.286621
1879.005737	826.800659
1878.201294	820.446411
1877.396729	870.024475
1876.592041	785.997314
1875.787231	804.502563
1874.982178	816.790222
1874.177124	813.547974
1873.371826	807.202148
1872.566406	853.628235
1871.760986	841.070618
1870.955322	785.074341
1870.149536	822.172974
1869.343506	862.361206
1868.537476	818.795410
1867.731323	834.162842
1866.924927	815.419983
1866.118530	877.281799
1865.311890	827.543823
1864.505127	784.020264
1863.698242	858.249573
1862.891235	848.811829
1862.084106	861.058594
1861.276855	833.042603
1860.469482	866.961853
1859.661865	817.283813
1858.854126	851.194275
1858.046387	872.714355
1857.238403	854.002441
1856.430298	782.703979
1855.622070	822.783691
1854.813721	847.386597
1854.005249	878.165466
1853.196533	908.933960
1852.387817	819.139465
1851.578857	893.175476
1850.769775	803.413757
1849.960693	812.547302
1849.151367	861.834839
1848.341919	781.389099
1847.532227	846.105103
1846.722534	849.050293
1845.912720	858.168274
1845.102661	864.196716
1844.292603	870.223145
1843.482300	873.162109
1842.671875	826.742310
1841.861328	854.362305
1841.050659	869.637634
1840.239868	909.574219
1839.428833	832.351563
1838.617798	921.597168
1837.806519	859.807129
1836.995117	850.418701
1836.183716	819.468506
1835.372070	902.495667
1834.560303	890.025024
1833.748291	852.925354
1832.936279	865.096313
1832.124146	803.388306
1831.311768	840.184204
1830.499390	836.965637
1829.686768	904.509033
1828.874023	861.292053
1828.061157	821.165161
1827.248169	950.177124
1826.434937	891.601746
1825.621704	897.599487
1824.808228	928.182800
1823.994751	900.369995
1823.181030	891.001038
1822.367188	869.347595
1821.553223	949.057007
1820.739136	924.330139
1819.924927	902.681946
1819.110474	908.669434
1818.296021	847.130005
1817.481323	957.463806
1816.666626	905.141724
1815.851685	895.785828
1815.036621	895.634766
1814.221436	929.217712
1813.406006	910.663757
1812.590576	867.590515
1811.774902	913.421814
1810.959229	885.685852
1810.143311	937.626831
1809.327271	903.768799
1808.511108	894.427063
1807.694824	915.714294
1806.878418	949.242554
1806.061768	851.112610
1805.245117	887.701477
1804.428223	915.096375
1803.611206	908.821960
1802.794067	847.478760
1801.976807	954.399780
1801.159424	880.835754
1800.341919	889.860840
1799.524170	1039.524414
1798.706421	981.267700
1797.888428	916.917786
1797.070313	953.433472
1796.252075	907.442078
1795.433716	907.288818
1794.615234	989.602478
1793.796509	906.982422
1792.977783	912.935852
1792.158813	909.728821
1791.339844	903.470642
1790.520630	903.317993
1789.701294	875.704285
1788.881714	930.469299
1788.062134	979.115295
1787.242432	933.204529
1786.422485	896.456787
1785.602417	935.937805
1784.782349	926.635193
1783.962036	984.383545
1783.141479	920.227783
1782.320923	886.559631
1781.500244	938.193176
1780.679321	950.216858
1779.858398	919.605652
1779.037231	934.672852
1778.215942	974.087097
1777.394531	910.008728
1776.572998	943.327759
1775.751221	937.083252
1774.929443	939.966736
1774.107422	970.222229
1773.285278	997.426514
1772.463013	954.691895
1771.640625	936.290955
1770.818115	954.368835
1769.995483	1018.023804
1769.172607	899.355408
1768.349731	1011.603577
1767.526611	1011.432373
1766.703369	990.003479
1765.880005	956.436523
1765.056519	968.417847
1764.232910	956.112793
1763.409058	955.950928
1762.585083	1058.953613
1761.761108	955.627258
1760.936890	922.099976
1760.112549	952.270935
1759.288086	970.302856
1758.463379	936.790039
1757.638672	942.693726
1756.813721	963.748596
1755.988647	951.464783
1755.163574	987.659180
1754.338257	929.938660
1753.512695	990.353149
1752.687134	1020.466248
1751.861328	990.017578
1751.035522	950.497986
1750.209473	1016.921021
1749.383301	998.592468
1748.557007	1010.525330
1747.730591	1013.379089
1746.903931	970.864319
1746.077271	979.771667
1745.250366	991.699463
1744.423340	1009.669128
1743.596313	949.048950
1742.768921	997.239014
1741.941528	909.448608
1741.114014	1008.984436
1740.286255	972.568542
1739.458374	972.403625
1738.630493	1041.684326
1737.802368	1065.658447
1736.973999	965.872131
1736.145630	1086.421875
1735.317139	1022.873657
1734.488403	956.330200
1733.659546	1082.852661
1732.830566	1025.368896
1732.001465	1007.103149
1731.172241	1064.212769
1730.342896	1094.174805
1729.513306	952.343079
1728.683594	1039.565186
1727.853882	942.981628
1727.023926	1000.053528
1726.193726	993.860291
1725.363525	1050.904175
1724.533203	975.458801
1723.702637	966.262634
1722.871948	1077.455688
1722.041138	959.916199
1721.210205	1068.063843
1720.379150	1070.890625
1719.547974	1037.625000
1718.716553	1013.391907
1717.885010	1061.325195
1717.053467	1064.150879
1716.221558	1033.914429
1715.389648	1042.753906
1714.557617	1081.635742
1713.725342	1132.520508
1712.893066	1099.289307
1712.060547	1105.108521
1711.227905	993.828064
1710.395142	1044.692993
1709.562256	1020.503540
1708.729126	1071.346558
1707.895874	1074.164917
1707.062622	1052.982544
1706.229126	1118.791260
1705.395508	1004.641602
1704.561646	1088.426514
1703.727783	1052.266479
1702.893677	1112.035522
1702.059570	1066.892944
1701.225220	1027.758545
1700.390747	1081.509399
1699.556030	1123.260498
1698.721313	1081.141357
1697.886353	1119.883911
1697.051392	1122.687134
1696.216187	1101.542847
1695.380859	1083.398560
1694.545410	1077.229492
1693.709717	1044.136353
1692.874023	1109.766968
1692.038086	1097.614990
1691.202026	1124.340454
1690.365845	1067.343628
1689.529541	1079.118896
1688.692993	1135.721191
1687.856445	1108.633789
1687.019653	1093.506348
1686.182739	1099.294556
1685.345703	1087.160522
1684.508545	1078.016724
1683.671143	1068.876099
1682.833740	1137.353027
1681.996094	1041.649902
1681.158325	1116.076416
1680.320435	1068.147827
1679.482422	1124.645508
1678.644287	1130.419189
1677.805908	1073.566162
1676.967407	1079.346436
1676.128784	1085.124634
1675.290039	1070.036621
1674.451172	1123.495972
1673.612183	1117.345215
1672.772949	1060.552246
1671.933594	1099.092896
1671.094116	1110.817749
1670.254517	1101.695679
1669.414795	1131.278320
1668.574829	1113.226074
1667.734863	1101.132080
1666.894653	1133.675049
1666.054321	1100.756470
1665.213867	1139.237305
1664.373169	1165.809082
1663.532471	1159.663086
1662.691528	1094.059570
1661.850464	1076.037964
1661.009277	1153.125732
1660.167969	1132.128662
1659.326538	1072.516235
1658.484863	1113.919556
1657.643066	1131.549072
1656.801147	1098.692139
1655.959106	1148.976318
1655.116943	1142.843384
1654.274658	1089.225708
1653.432129	1145.420532
1652.589478	1151.158813
1651.746704	1130.197388
1650.903809	1121.106812
1650.060791	1100.157593
1649.217529	1097.004761
1648.374146	1167.962402
1647.530640	1152.943481
1646.687012	1132.003052
1645.843262	1128.846802
1644.999390	1122.729248
1644.155273	1060.338745
1643.311035	1160.842896
1642.466675	1166.566284
1641.622192	1086.438110
1640.777588	1204.645142
1639.932739	1118.619263
1639.087769	1077.004761
1638.242798	1174.444458
1637.397461	1126.919067
1636.552124	1197.701294
1635.706665	1138.360840
1634.860962	1120.428589
1634.015137	1149.794678
1633.169189	1164.374390
1632.323120	1146.446655
1631.476929	1098.982544
1630.630493	1202.175781
1629.783936	1151.765015
1628.937256	1178.142700
1628.090454	1189.750000
1627.243530	1157.077515
1626.396484	1159.830688
1625.549194	1124.223633
1624.701782	1177.135132
1623.854248	1185.782715
1623.006592	1100.052979
1622.158691	1108.710693
1621.310791	1155.692139
1620.462646	1164.337280
1619.614380	1164.138062
1618.765991	1105.005127
1617.917358	1095.977417
1617.068726	1157.648804
1616.219849	1225.189453
1615.370850	1157.252441
1614.521729	1162.942505
1613.672363	1168.630615
1612.822998	1165.487305
1611.973389	1174.115601
1611.123657	1197.451660
1610.273804	1170.771729
1609.423828	1132.336426
1608.573608	1143.905029
1607.723389	1170.170044
1606.872925	1143.512939
1606.022339	1196.221191
1605.171509	1178.384399
1604.320679	1216.377930
1603.469604	1186.793335
1602.618408	1233.583618
1601.767090	1189.323120
1600.915649	1168.566528
1600.064087	1244.691650
1599.212280	1250.348389
1598.360352	1253.068604
1597.508301	1232.315186
1596.656128	1296.642578
1595.803833	1240.691772
1594.951294	1313.793335
1594.098633	1266.654785
1593.245850	1386.631836
1592.392944	1357.083252
1591.539795	1406.670044
1590.686646	1353.687622
1589.833252	1303.652832
1588.979736	1315.145386
1588.126099	1276.848511
1587.272217	1311.765991
1586.418335	1270.555176
1585.564209	1173.744629
1584.709961	1270.119019
1583.855591	1261.122925
1583.000977	1301.863892
1582.146362	1278.240112
1581.291504	1263.398071
1580.436523	1292.421387
1579.581421	1222.034790
1578.726074	1338.745972
1577.870605	1297.600708
1577.015137	1250.625488
1576.159424	1373.114502
1575.303467	1323.221313
1574.447510	1358.040283
1573.591309	1357.806885
1572.734985	1348.815063
1571.878540	1336.907349
1571.021973	1260.796265
1570.165161	1298.513794
1569.308350	1327.465698
1568.451294	1344.739624
1567.594116	1300.760864
1566.736694	1233.469238
1565.879272	1279.905273
1565.021606	1244.705200
1564.163818	1168.714233
1563.305908	1226.793213
1562.447876	1206.187744
1561.589600	1214.719360
1560.731201	1132.960571
1559.872681	1234.685547
1559.014038	1283.968628
1558.155273	1228.438843
1557.296265	1207.854126
1556.437134	1367.695923
1555.577881	1326.727661
1554.718506	1230.502808
1553.859009	1390.257935
1552.999268	1311.503052
1552.139404	1308.369873
1551.279419	1313.958740
1550.419312	1302.106567
1549.558960	1240.856812
1548.698608	1342.335205
1547.838013	1263.669556
1546.977173	1304.114746
1546.116333	1300.986328
1545.255249	1254.306519
1544.394165	1358.598022
1543.532837	1230.654663
1542.671265	1262.364624
1541.809692	1247.639771
1540.947876	1346.058472
1540.085938	1229.807129
1539.223877	1246.995117
1538.361694	1220.684937
1537.499268	1272.656494
1536.636841	1295.625122
1535.774170	1272.218018
1534.911377	1228.536377
1534.048340	1231.221680
1533.185303	1190.458618
1532.322021	1239.485352
1531.458618	1256.644653
1530.594971	1207.213135
1529.731323	1264.894897
1528.867432	1177.856934
1528.003418	1255.778320
1527.139282	1284.491821
1526.275024	1194.602783
1525.410522	1252.236816
1524.545898	1321.416992
1523.681152	1277.824097
1522.816284	1315.180176
1521.951172	1254.263184
1521.086060	1337.842651
1520.220703	1308.721680
1519.355225	1259.391235
1518.489502	1322.710327
1517.623779	1296.494385
1516.757813	1267.400513
1515.891724	1195.018799
1515.025513	1266.963135
1514.159058	1217.690552
1513.292480	1283.835938
1512.425781	1335.535889
1511.558960	1274.740723
1510.692017	1329.307739
1509.824829	1259.885498
1508.957520	1314.436035
1508.090088	1198.927612
1507.222534	1256.351440
1506.354736	1279.182739
1505.486938	1264.559082
1504.618896	1336.341919
1503.750610	1281.399658
1502.882324	1315.726929
1502.013794	1292.471191
1501.145142	1300.882080
1500.276367	1300.657349
1499.407471	1271.661987
1498.538330	1326.096924
1497.669067	1294.231079
1496.799683	1360.145508
1495.930176	1259.282837
1495.060547	1284.936401
1494.190674	1293.336548
1493.320679	1336.216675
1492.450562	1284.270142
1491.580200	1292.665894
1490.709717	1407.326172
1489.839233	1272.117676
1488.968384	1398.226196
1488.097534	1329.089844
1487.226440	1357.561157
1486.355347	1388.892090
1485.483887	1316.923950
1484.612427	1345.382324
1483.740845	1345.149536
1482.869019	1373.593140
1481.997070	1353.285522
1481.124878	1390.317627
1480.252686	1347.084961
1479.380249	1401.299072
1478.507690	1272.125000
1477.635010	1446.648560
1476.762207	1412.028198
1475.889160	1417.511108
1475.015991	1417.265747
1474.142700	1551.565796
1473.269165	1525.537598
1472.395630	1462.316650
1471.521851	1587.955322
1470.647949	1639.172729
1469.773804	1581.685059
1468.899658	1652.903442
1468.025269	1732.674805
1467.150757	1886.744629
1466.276001	1906.425293
1465.401245	2126.138916
1464.526245	2171.486084
1463.651123	2353.940186
1462.775879	2444.931641
1461.900391	2533.035645
1461.024780	2798.134033
1460.149048	2926.112549
1459.273193	2948.439453
1458.397217	3144.837402
1457.520996	3018.748779
1456.644653	3021.078369
1455.768188	2875.088867
1454.891479	2831.813721
1454.014648	2754.338135
1453.137695	2577.111572
1452.260620	2505.407471
1451.383423	2365.332764
1450.505981	2259.498291
1449.628418	2167.944580
1448.750732	2119.146973
1447.872803	2073.214355
1446.994873	1950.419556
1446.116699	1884.604004
1445.238403	1852.967285
1444.359863	1809.958008
1443.481201	1798.262573
1442.602417	1789.415894
1441.723511	1820.393433
1440.844482	1842.828369
1439.965210	1799.857910
1439.085815	1791.016846
1438.206299	1816.287354
1437.326538	1864.284302
1436.446777	1906.581665
1435.566772	1954.546143
1434.686646	2084.865967
1433.806274	2129.942627
1432.925781	1979.082886
1432.045166	1916.282593
1431.164429	1759.835327
1430.283569	1699.932617
1429.402466	1486.828003
1428.521240	1495.080566
1427.639893	1506.166748
1426.758301	1344.254150
1425.876709	1446.098145
1424.994873	1340.952026
1424.112793	1374.733032
1423.230713	1303.643921
1422.348389	1345.920044
1421.465942	1348.519165
1420.583374	1438.925659
1419.700562	1376.370728
1418.817627	1359.142090
1417.934570	1333.426392
1417.051392	1375.652954
1416.167969	1324.472412
1415.284546	1344.049194
1414.400757	1423.029785
1413.516968	1306.809937
1412.633057	1382.941406
1411.748901	1422.287354
1410.864624	1450.311157
1409.980103	1416.139282
1409.095459	1381.979248
1408.210815	1350.656738
1407.325806	1432.351074
1406.440796	1347.362061
1405.555542	1414.907593
1404.670166	1392.071899
1403.784668	1366.421021
1402.899048	1346.424316
1402.013184	1419.567139
1401.127197	1393.924561
1400.241089	1396.503174
1399.354736	1458.316040
1398.468262	1333.971680
1397.581665	1381.675049
1396.694946	1412.446167
1395.807983	1415.018921
1394.920898	1318.951294
1394.033691	1349.717163
1393.146362	1394.558594
1392.258789	1366.147705
1391.371094	1416.603271
1390.483276	1405.093140
1389.595337	1430.186279
1388.707153	1418.677734
1387.818848	1407.173096
1386.930420	1356.278442
1386.041748	1358.855347
1385.152954	1403.624512
1384.264038	1361.194092
1383.375000	1366.580566
1382.485718	1408.513428
1381.596313	1495.406128
1380.706787	1436.126465
1379.817139	1444.305908
1378.927246	1536.765625
1378.037231	1466.273804
1377.147095	1575.548096
1376.256714	1645.472656
1375.366333	1639.570679
1374.475586	1625.249756
1373.584839	1551.997070
1372.693970	1616.264648
1371.802856	1582.316284
1370.911499	1472.643799
1370.020142	1581.764160
1369.128540	1634.765137
1368.236816	1544.765625
1367.344971	1578.132935
1366.453003	1625.501465
1365.560791	1555.165283
1364.668457	1664.156616
1363.775879	1750.700806
1362.883301	1767.198853
1361.990479	1780.890991
1361.097534	1816.975586
1360.204346	1906.231567
1359.311035	2040.235107
1358.417603	1908.363892
1357.524048	2059.106201
1356.630249	1918.886108
1355.736450	1859.819702
1354.842285	1828.736206
1353.948120	1839.599731
1353.053711	1721.877563
1352.159180	1660.091675
1351.264526	1665.390137
1350.369751	1625.986084
1349.474731	1572.629150
1348.579590	1563.975830
1347.684204	1560.910034
1346.788818	1619.265747
1345.893188	1630.148071
1344.997314	1649.399048
1344.101440	1610.045532
1343.205322	1673.931274
1342.309082	1835.423584
1341.412720	1637.090088
1340.516113	1712.091064
1339.619385	1689.488159
1338.722534	1831.352417
1337.825439	1794.801514
1336.928223	1763.836426
1336.030884	1897.255005
1335.133423	1924.777954
1334.235718	1991.281372
1333.337891	2096.744873
1332.439941	2224.443359
1331.541870	2430.036621
1330.643555	2521.452148
1329.745117	2643.444092
1328.846436	2882.240723
1327.947754	2828.885742
1327.048828	2858.982666
1326.149780	2674.960693
1325.250488	2340.875977
1324.351074	2254.296875
1323.451538	2114.943848
1322.551880	1992.311523
1321.651978	1889.169556
1320.751953	1858.283936
1319.851807	1819.077271
1318.951416	1624.387451
1318.050903	1582.459229
1317.150269	1671.006226
1316.249512	1656.837036
1315.348511	1614.924927
1314.447388	1603.544678
1313.546021	1461.799194
1312.644653	1586.342773
1311.743042	1500.106567
1310.841309	1552.518311
1309.939331	1446.915161
1309.037231	1438.347412
1308.135010	1518.451172
1307.232666	1534.807373
1306.330078	1534.538208
1305.427368	1578.580200
1304.524536	1661.371948
1303.621460	1594.637329
1302.718262	1522.390015
1301.814941	1621.752808
1300.911499	1577.196167
1300.007813	1529.888550
1299.104004	1501.959717
1298.199951	1446.385132
1297.295898	1540.143677
1296.391602	1526.050415
1295.487061	1545.131348
1294.582520	1613.950439
1293.677734	1475.510742
1292.772827	1541.555176
1291.867676	1535.760254
1290.962402	1444.355347
1290.057007	1524.176270
1289.151489	1416.241211
1288.245728	1462.916138
1287.339844	1426.782715
1286.433838	1423.772949
1285.527588	1404.211426
1284.621216	1414.997925
1283.714722	1370.624634
1282.808105	1395.199707
1281.901245	1348.088501
1280.994263	1463.618042
1280.087036	1386.196899
1279.179810	1308.802734
1278.272217	1460.091675
1277.364624	1355.167725
1276.456787	1371.453003
1275.548828	1407.006714
1274.640747	1313.158936
1273.732544	1354.215088
1272.824097	1315.449219
1271.915405	1337.229980
1271.006714	1389.264160
1270.097778	1391.770386
1269.188721	1441.026611
1268.279541	1311.543579
1267.370117	1402.032593
1266.460571	1379.797241
1265.550781	1305.355347
1264.640991	1365.573608
1263.730957	1409.287842
1262.820679	1381.573120
1261.910400	1320.914063
1260.999878	1309.698853
1260.089233	1402.805664
1259.178345	1402.558838
1258.267334	1361.148193
1257.356201	1404.808960
1256.444824	1475.887085
1255.533447	1459.170410
1254.621704	1387.613281
1253.709961	1510.751587
1252.797974	1510.485596
1251.885864	1406.066528
1250.973633	1414.040039
1250.061157	1383.652100
1249.148560	1498.464111
1248.235840	1331.124878
1247.322876	1361.013428
1246.409790	1382.677490
1245.496582	1344.109009
1244.583130	1428.719482
1243.669556	1351.844971
1242.755859	1343.398560
1241.841919	1373.253052
1240.927856	1364.805786
1240.013672	1375.503662
1239.099365	1326.047119
1238.184814	1416.023315
1237.270142	1421.239990
1236.355225	1382.732056
1235.440186	1363.362915
1234.525024	1311.220093
1233.609741	1310.988892
1232.694214	1316.219238
1231.778564	1348.750244
1230.862671	1364.890991
1229.946777	1389.213989
1229.030640	1438.087769
1228.114258	1465.117432
1227.197876	1415.757568
1226.281128	1453.691040
1225.364380	1439.800049
1224.447388	1534.970459
1223.530273	1515.618042
1222.613037	1558.957764
1221.695557	1716.730835
1220.777954	1700.080933
1219.860229	1686.160767
1218.942261	1710.374878
1218.024170	1628.381592
1217.105957	1742.441772
1216.187500	1676.804077
1215.268921	1660.178345
1214.350220	1551.040283
1213.431274	1618.782471
1212.512207	1553.212646
1211.593018	1503.984009
1210.673706	1514.595215
1209.754150	1511.608887
1208.834351	1432.512817
1207.914551	1369.751343
1206.994507	1415.703003
1206.074219	1388.284912
1205.153931	1390.755859
1204.233398	1314.466553
1203.312744	1373.972168
1202.391846	1384.588867
1201.470825	1427.774536
1200.549683	1443.805664
1199.628296	1381.141235
1198.706787	1370.045166
1197.785156	1345.390625
1196.863281	1391.256836
1195.941284	1317.799683
1195.019165	1369.076416
1194.096802	1290.227905
1193.174438	1352.331665
1192.251709	1349.382813
1191.328979	1319.343750
1190.406006	1292.023926
1189.482788	1324.293335
1188.559570	1402.581909
1187.636108	1256.144531
1186.712402	1334.417358
1185.788696	1350.418701
1184.864746	1271.712402
1183.940552	1420.278320
1183.016357	1336.177734
1182.091919	1292.671875
1181.167236	1300.554565
1180.242554	1381.425537
1179.317505	1332.528809
1178.392456	1421.472778
1177.467163	1386.095825
1176.541748	1407.462036
1175.616211	1382.903809
1174.690430	1447.471069
1173.764526	1460.714844
1172.838501	1487.451538
1171.912231	1524.974976
1170.985840	1710.907715
1170.059204	1799.642334
1169.132446	1918.019409
1168.205566	1871.827881
1167.278564	2025.206909
1166.351318	1995.189819
1165.423828	1911.268677
1164.496338	2010.654053
1163.568604	1792.021240
1162.640747	1886.003784
1161.712646	1802.161133
1160.784424	1782.988281
1159.856079	1820.372192
1158.927490	1890.051270
1157.998779	1962.397461
1157.069946	1953.975098
1156.140869	1977.847046
1155.211670	2036.686646
1154.282349	2273.044678
1153.352783	2353.326904
1152.423096	2527.697021
1151.493164	2532.625732
1150.563232	2529.488037
1149.632935	2346.281982
1148.702637	2332.429932
1147.772095	2141.263428
1146.841431	1950.164795
1145.910522	1901.475952
1144.979492	1740.025024
1144.048340	1664.543213
1143.116943	1640.089233
1142.185425	1631.746582
1141.253784	1516.074219
1140.321899	1491.659424
1139.389893	1357.276367
1138.457764	1375.808472
1137.525391	1359.475586
1136.592896	1378.000732
1135.660278	1369.714478
1134.727417	1385.551025
1133.794434	1363.868896
1132.861206	1328.799072
1131.927856	1291.063232
1130.994385	1341.717285
1130.060669	1271.861206
1129.126831	1330.531860
1128.192871	1410.594971
1127.258667	1343.439819
1126.324341	1316.443970
1125.389893	1375.064819
1124.455200	1283.878906
1123.520386	1288.999268
1122.585327	1320.855591
1121.650146	1283.194214
1120.714844	1325.731445
1119.779297	1368.253662
1118.843628	1274.493896
1117.907837	1258.238647
1116.971802	1287.395264
1116.035645	1303.188965
1115.099365	1268.247192
1114.162842	1302.725342
1113.226196	1275.803101
1112.289307	1288.918823
1111.352417	1398.081299
1110.415161	1339.144897
1109.477905	1346.907959
1108.540405	1392.001587
1107.602661	1381.088989
1106.664917	1356.851563
1105.726807	1383.262451
1104.788696	1473.618408
1103.850342	1404.084229
1102.911865	1441.127686
1101.973145	1400.920898
1101.034302	1429.962891
1100.095337	1485.618652
1099.156128	1381.538940
1098.216797	1421.214478
1097.277344	1420.961304
1096.337646	1407.405640
1095.397827	1343.314209
1094.457764	1398.925415
1093.517700	1308.267456
1092.577271	1334.620361
1091.636841	1360.963745
1090.696167	1397.928345
1089.755249	1320.620850
1088.814209	1354.922607
1087.873047	1460.930542
1086.931763	1434.112427
1085.990234	1423.235596
1085.048584	1359.266113
1084.106689	1351.060669
1083.164673	1334.896484
1082.222412	1300.164307
1081.280151	1291.973633
1080.337524	1281.133301
1079.394897	1325.988403
1078.452026	1339.009277
1077.509033	1288.400757
1076.565796	1277.568726
1075.622437	1287.941040
1074.678955	1343.353027
1073.735229	1311.323608
1072.791382	1297.846191
1071.847290	1263.187988
1070.903076	1342.394165
1069.958740	1358.037964
1069.014160	1259.864868
1068.069458	1354.906738
1067.124512	1314.977417
1066.179565	1309.451782
1065.234253	1343.601440
1064.288940	1351.294678
1063.343384	1277.023071
1062.397583	1327.020752
1061.451660	1377.000610
1060.505615	1339.759277
1059.559448	1339.519897
1058.613037	1363.054810
1057.666382	1381.298950
1056.719727	1349.364502
1055.772827	1325.361938
1054.825684	1430.712646
1053.878418	1462.127563
1052.931030	1464.504883
1051.983398	1453.690063
1051.035645	1511.461792
1050.087769	1447.895630
1049.139648	1471.368408
1048.191406	1500.105591
1047.242920	1502.473267
1046.294312	1510.110840
1045.345581	1604.699951
1044.396606	1604.412842
1043.447510	1662.074585
1042.498291	1638.075195
1041.548828	1606.185059
1040.599121	1682.243530
1039.649414	1681.942505
1038.699341	1676.378174
1037.749268	1702.390259
1036.798950	1715.239258
1035.848511	1778.058594
1034.897827	1640.991089
1033.947021	1693.283813
1032.996094	1674.578613
1032.044922	1605.940918
1031.093506	1534.699829
1030.142090	1487.131104
1029.190430	1484.237793
1028.238525	1547.007935
1027.286499	1488.958252
1026.334351	1462.435913
1025.381958	1372.921021
1024.429443	1425.167358
1023.476807	1461.650146
1022.523926	1445.646240
1021.570923	1371.937378
1020.617737	1502.828369
1019.664368	1423.890991
1018.710815	1381.687134
1017.757080	1431.244629
1016.803223	1451.954956
1015.849121	1370.462646
1014.894897	1451.434448
1013.940491	1398.785278
1012.985962	1440.438110
1012.031189	1448.035400
1011.076294	1371.852539
1010.121216	1366.371460
1009.165955	1418.468384
1008.210510	1465.313354
1007.254944	1355.171753
1006.299133	1430.783691
1005.343201	1472.370605
1004.387085	1500.868652
1003.430786	1537.199341
1002.474365	1604.882690
1001.517700	1641.181641
1000.560913	1813.337036
999.603943	1948.856812
998.646790	2073.880127
997.689514	2044.781616
996.731995	2044.414551
995.774353	1916.131348
994.816528	1795.724365
993.858521	1766.696411
992.900330	1701.151001
991.942017	1533.891357
990.983459	1507.533936
990.024780	1512.478638
989.065918	1470.490967
988.106873	1465.013184
987.147705	1443.899536
986.188293	1417.581543
985.228760	1383.456909
984.269043	1458.750854
983.309143	1375.146484
982.349060	1432.186890
981.388794	1426.722412
980.428406	1397.832520
979.467834	1553.735596
978.507019	1576.875244
977.546082	1628.624512
976.585022	1719.372559
975.623718	1888.109009
974.662292	1905.971191
973.700623	1944.624878
972.738831	2118.428223
971.776855	2040.082275
970.814758	2011.133301
969.852417	1813.331421
968.889954	1779.238647
967.927246	1636.085693
966.964417	1565.686035
966.001404	1513.483765
965.038208	1528.784790
964.074890	1505.153809
963.111328	1432.233398
962.147644	1504.612061
961.183777	1413.562012
960.219727	1444.426270
959.255493	1446.759033
958.291077	1417.983398
957.326538	1425.503540
956.361755	1440.795044
955.396851	1367.990601
954.431763	1305.574097
953.466492	1421.887085
952.501038	1429.399414
951.535461	1390.306519
950.569641	1377.113281
949.603699	1402.746216
948.637573	1386.967651
947.671265	1384.130615
946.704773	1433.028442
945.738098	1458.632446
944.771240	1538.528198
943.804260	1525.324463
942.837097	1561.237061
941.869751	1586.799316
940.902222	1645.942871
939.934509	1650.812988
938.966614	1560.111572
937.998535	1590.820313
937.030334	1569.877197
936.061951	1492.146973
935.093323	1440.255859
934.124573	1393.544556
933.155640	1483.599243
932.186584	1426.578003
931.217285	1436.637695
930.247864	1392.539307
929.278198	1418.071167
928.308411	1389.458984
927.338440	1420.136841
926.368286	1435.342041
925.397949	1471.153320
924.427429	1378.152222
923.456787	1419.111816
922.485901	1429.155884
921.514893	1428.897827
920.543701	1333.397217
919.572327	1366.614136
918.600769	1417.831299
917.629028	1353.256958
916.657104	1337.578857
915.685059	1316.762939
914.712769	1355.095093
913.740356	1408.838745
912.767761	1421.436279
911.794983	1364.640625
910.822021	1423.492188
909.848877	1364.147583
908.875549	1330.509888
907.902039	1407.312134
906.928406	1360.840576
905.954590	1458.146606
904.980530	1355.215210
904.006348	1455.053345
903.031982	1536.894775
902.057434	1552.008789
901.082703	1579.941406
900.107849	1687.359497
899.132751	1633.212280
898.157532	1625.226563
897.182068	1540.354126
896.206482	1599.013428
895.230713	1442.438721
894.254761	1460.108887
893.278625	1505.945190
892.302307	1441.656006
891.325806	1446.515503
890.349182	1425.775879
889.372314	1420.399292
888.395325	1409.906982
887.418091	1381.509888
886.440735	1432.417603
885.463196	1363.107788
884.485474	1465.139648
883.507568	1400.961792
882.529480	1418.600464
881.551270	1443.899292
880.572815	1458.968506
879.594238	1425.493896
878.615417	1524.848999
877.636475	1437.746216
876.657349	1427.272705
875.677979	1465.306152
874.698486	1442.069702
873.718811	1492.845825
872.739014	1400.724609
871.758972	1492.304932
870.778748	1484.383057
869.798401	1481.563965
868.817810	1465.998047
867.837097	1422.397705
866.856140	1437.431641
865.875061	1564.579834
864.893799	1492.960205
863.912354	1444.291748
862.930725	1398.187622
861.948914	1499.787231
860.966919	1547.886719
859.984741	1578.150879
859.002441	1476.066895
858.019897	1544.500122
857.037231	1518.779785
856.054321	1645.682129
855.071289	1658.098999
854.088074	1629.829224
853.104614	1637.160034
852.121033	1735.989746
851.137268	1651.813354
850.153320	1809.042603
849.169189	1750.286621
848.184937	1836.324463
847.200439	1952.803711
846.215759	2028.617554
845.230896	2188.173828
844.245911	2461.883057
843.260681	2923.272461
842.275330	3376.882813
841.289795	3635.007080
840.304016	3401.018066
839.318115	3139.221191
838.332031	2722.868408
837.345764	2435.941650
836.359314	2265.698242
835.372681	2125.923340
834.385864	2090.069336
833.398865	2056.760986
832.411743	1950.022339
831.424377	1904.091309
830.436829	1893.618896
829.449158	1814.810059
828.461243	1768.928345
827.473206	1829.331543
826.484924	1742.987915
825.496521	1747.729492
824.507935	1772.699829
823.519104	1706.640259
822.530151	1784.694580
821.541016	1761.623047
820.551697	1748.667725
819.562195	1728.137573
818.572510	1808.656982
817.582642	1724.983276
816.592590	1843.350830
815.602356	1855.638794
814.611938	2054.714355
813.621399	2122.481934
812.630615	2253.307373
811.639648	2633.846191
810.648560	2971.365967
809.657227	3386.942383
808.665771	3580.478516
807.674072	3519.322510
806.682251	3221.257324
805.690186	2784.695801
804.697998	2532.225830
803.705566	2078.314209
802.713013	1967.112427
801.720276	1863.505859
800.727356	1792.668213
799.734253	1734.442993
798.740906	1693.856934
797.747437	1640.703613
796.753784	1688.207886
795.759949	1655.198730
794.765930	1589.505981
793.771729	1606.818359
792.777344	1614.067871
791.782776	1560.986694
790.788025	1540.596436
789.793091	1535.290039
788.798035	1509.887207
787.802734	1582.455078
786.807251	1557.052734
785.811584	1526.637817
784.815796	1526.359375
783.819763	1465.840942
782.823547	1495.688110
781.827148	1492.906128
780.830627	1532.771851
779.833862	1547.541260
778.836975	1512.150879
777.839844	1501.845947
776.842529	1486.531128
775.845093	1518.842163
774.847412	1511.047363
773.849609	1520.793213
772.851563	1460.396362
771.853394	1505.210938
770.854980	1447.342896
769.856445	1499.654175
768.857666	1469.342773
767.858765	1401.501953
766.859680	1428.770508
765.860352	1421.004272
764.860901	1460.765747
763.861206	1510.515991
762.861389	1467.733276
761.861389	1494.964478
760.861145	1464.697510
759.860779	1479.424072
758.860168	1509.136597
757.859436	1496.370239
756.858521	1456.134277
755.857361	1480.840088
754.856079	1448.111694
753.854614	1515.246826
752.852905	1472.540649
751.851074	1484.748291
750.848999	1469.507324
749.846802	1451.777344
748.844421	1551.272217
747.841797	1476.182007
746.839050	1515.801514
745.836121	1513.031616
744.832947	1388.145752
743.829651	1405.333862
742.826111	1459.884766
741.822449	1424.746216
740.818604	1451.879517
739.814514	1456.593628
738.810303	1443.879761
737.805847	1406.280640
736.801270	1545.381348
735.796448	1532.658081
734.791504	1502.526001
733.786316	1517.173950
732.781006	1489.542358
731.775452	1546.453491
730.769775	1498.940063
729.763855	1511.092285
728.757751	1508.330688
727.751526	1575.134277
726.745056	1552.489990
725.738403	1460.314941
724.731628	1455.081299
723.724609	1459.780029
722.717407	1494.262817
721.710083	1464.208496
720.702515	1419.277588
719.694763	1438.863892
718.686829	1473.325073
717.678711	1520.172852
716.670410	1460.387817
715.661987	1549.363403
714.653320	1474.723511
713.644470	1432.325928
712.635437	1521.257568
711.626221	1511.069946
710.616821	1458.781982
709.607178	1490.705688
708.597412	1443.392090
707.587463	1527.289185
706.577332	1529.483887
705.567017	1482.188965
704.556458	1484.390991
703.545776	1471.750977
702.534912	1466.534790
701.523804	1599.787354
700.512573	1488.246094
699.501099	1485.501221
698.489502	1529.711304
697.477661	1549.196899
696.465698	1484.683350
695.453491	1514.049561
694.441101	1474.260376
693.428589	1530.776611
692.415833	1456.439209
691.402893	1562.299561
690.389771	1596.559570
689.376465	1475.374390
688.362976	1519.504517
687.349304	1504.427734
686.335449	1634.839844
685.321411	1558.113037
684.307190	1624.379517
683.292725	1525.502563
682.278137	1451.301880
681.263367	1561.895264
680.248352	1566.534424
679.233215	1507.142822
678.217834	1548.723145
677.202332	1568.132324
676.186584	1479.237549
675.170654	1606.929199
674.154541	1500.837036
673.138306	1562.059448
672.121826	1561.772217
671.105164	1561.484985
670.088318	1566.114868
669.071289	1499.457397
668.054016	1509.012207
667.036621	1491.534058
666.019043	1520.740845
665.001282	1478.703613
663.983276	1532.460571
662.965149	1539.544800
661.946777	1558.901245
660.928223	1534.069092
659.909546	1622.132935
658.890625	1553.133301
657.871521	1528.315796
656.852234	1493.696533
655.832764	1490.969238
654.813110	1498.050171
653.793274	1544.349854
652.773254	1519.556519
651.752991	1477.619019
650.732605	1572.896606
649.711975	1528.515137
648.691223	1540.479004
647.670227	1554.886963
646.649048	1517.877686
645.627747	1505.359253
644.606201	1568.711304
643.584473	1573.315918
642.562561	1538.776611
641.540466	1602.087280
640.518127	1511.308960
639.495667	1606.386719
638.473022	1593.867554
637.450134	1515.361572
636.427063	1595.723633
635.403870	1534.348511
634.380432	1556.050659
633.356812	1550.879028
632.333008	1543.267334
631.309021	1562.514038
630.284851	1584.194580
629.260498	1605.867065
628.235901	1566.529541
627.211182	1556.481934
626.186218	1490.337036
625.161133	1602.243408
624.135803	1550.743896
623.110291	1594.338501
622.084595	1601.356323
621.058716	1615.682373
620.032654	1571.527466
619.006409	1624.829956
617.979919	1602.609741
616.953308	1573.092285
615.926453	1533.846924
614.899414	1577.379761
613.872253	1586.823486
612.844849	1557.330444
611.817261	1486.489258
610.789490	1566.484863
609.761475	1588.083252
608.733337	1556.179932
607.705017	1524.288330
606.676453	1628.523804
605.647705	1637.943604
604.618774	1637.640869
603.589722	1540.166748
602.560425	1620.033691
601.530884	1585.736694
600.501221	1590.299438
599.471375	1619.135254
598.441284	1674.657837
597.411011	1526.326050
596.380615	1581.845093
595.349976	1559.721191
594.319153	1607.937622
593.288147	1522.772339
592.256897	1667.951538
591.225525	1597.349854
590.193970	1521.927368
589.162170	1587.066772
588.130188	1560.125000
587.098022	1571.946899
586.065674	1629.775757
585.033142	1554.416504
584.000427	1604.964844
582.967468	1626.450562
581.934387	1689.065918
580.901062	1562.943481
579.867554	1567.492065
578.833862	1533.342529
577.799988	1598.346558
576.765930	1585.962402
575.731628	1556.662476
574.697205	1599.875244
573.662537	1546.420654
572.627747	1579.955933
571.592712	1567.586182
570.557434	1581.785400
569.522034	1569.419800
568.486450	1593.269409
567.450623	1605.042114
566.414673	1636.115601
565.378479	1650.288574
564.342102	1628.272339
563.305542	1693.089355
562.268799	1661.427734
561.231812	1632.188721
560.194702	1684.916382
559.157349	1636.403442
558.119812	1638.509644
557.082092	1664.706055
556.044189	1628.267090
555.006042	1676.129761
553.967773	1651.740967
552.929260	1576.807007
551.890625	1590.955811
550.851746	1612.318604
549.812683	1631.267334
548.773376	1645.397949
547.733948	1657.118042
546.694275	1676.047852
545.654419	1591.589233
544.614441	1603.312622
543.574158	1703.954346
542.533752	1686.817871
541.493164	1736.955688
540.452332	1770.260864
539.411316	1731.507568
538.370178	1714.378296
537.328735	1778.877319
536.287170	1804.949097
535.245422	1852.608765
534.203430	1746.695190
533.161255	1736.775146
532.118896	1844.381104
531.076355	1764.905396
530.033630	1762.179932
528.990723	1881.706299
527.947571	1807.060913
526.904236	1878.610718
525.860718	1801.597778
524.817017	1832.401611
523.773132	1836.850708
522.729004	1860.453125
521.684692	1819.409912
520.640198	1854.974243
519.595520	1785.230225
518.550659	1770.542480
517.505615	1834.802002
516.460327	1743.574707
515.414856	1762.380737
514.369202	1678.373169
513.323364	1723.478516
512.277283	1634.729492
511.231079	1694.163086
510.184631	1550.503784
509.138000	1626.651123
508.091187	1602.466553
507.044159	1590.229614
505.996948	1637.679321
504.949554	1596.798096
503.901947	1606.046387
502.854126	1660.624268
501.806152	1657.929443
500.757965	1655.235596
499.709564	1662.081177
