#Wave		#Intensity
3200.600830	33.678818
3200.007080	25.259113
3199.413086	-4.209216
3198.819092	37.877220
3198.224854	37.871494
3197.630615	21.036539
3197.036377	25.240030
3196.442139	71.502609
3195.847656	54.670200
3195.252930	37.842876
3194.658447	54.653671
3194.063721	21.017464
3193.468750	54.637142
3192.873779	50.426659
3192.278809	25.209517
3191.683838	58.813313
3191.088623	50.403786
3190.493164	16.798721
3189.897949	83.980904
3189.302490	0.000000
3188.706787	33.582199
3188.111328	33.577118
3187.515381	25.179029
3186.919678	50.350441
3186.323730	20.976177
3185.727783	37.751408
3185.131592	29.357761
3184.535400	16.773325
3183.939209	37.734272
3183.342773	12.576187
3182.746338	29.339996
3182.149902	37.717144
3181.553223	25.140957
3180.956543	16.758101
3180.359619	8.377783
3179.762695	16.753029
3179.165771	37.688606
3178.568604	75.365807
3177.971436	8.372710
3177.374268	29.300051
3176.776855	25.110527
3176.179443	50.213451
3175.581787	12.551461
3174.984131	50.198246
3174.386475	33.460430
3173.788574	37.637283
3173.190674	45.994156
3172.592773	54.348495
3171.994629	33.440163
3171.396484	71.049583
3170.798340	20.893770
3170.199951	20.890606
3169.601563	25.064930
3169.002930	45.945408
3168.404297	25.057335
3167.805664	37.580307
3167.206787	45.924530
3166.607910	29.220272
3166.008789	45.910614
3165.409912	50.076714
3164.810547	16.689709
3164.211426	20.858974
3163.612061	62.567440
3163.012695	33.364243
3162.413086	45.868881
3161.813477	50.031193
3161.213623	29.180439
3160.614014	8.336004
3160.013916	58.343185
3159.414063	41.667385
3158.813965	16.664427
3158.213867	24.992851
3157.613525	58.307808
3157.013184	33.313694
3156.412598	37.472225
3155.812256	45.792439
3155.211426	45.785496
3154.610840	45.778549
3154.010010	16.644220
3153.409180	54.085514
3152.808105	45.757721
3152.207031	49.909943
3151.605957	29.109716
3151.004639	37.421101
3150.403320	45.729961
3149.801758	16.626554
3149.200195	24.936047
3148.598633	49.864525
3147.996826	45.702213
3147.395020	20.770580
3146.793213	37.381371
3146.191162	58.139977
3145.589111	24.913351
3144.986816	41.515949
3144.384766	33.207718
3143.782227	37.353012
3143.179932	62.245567
3142.577393	8.298149
3141.974609	53.929779
3141.371826	45.625961
3140.769043	45.619034
3140.166260	37.318996
3139.563232	20.729628
3138.960205	41.452961
3138.356934	16.578667
3137.753662	41.440372
3137.150391	24.860447
3136.546875	45.570564
3135.943359	37.279343
3135.339600	45.556721
3134.735840	53.831581
3134.132080	66.244194
3133.528076	20.698164
3132.924072	12.417012
3132.320068	8.276751
3131.715820	57.928448
3131.111572	33.096943
3130.507080	49.637867
3129.902588	53.766186
3129.298096	62.028477
3128.693604	57.884449
3128.088867	57.875652
3127.483887	37.200119
3126.878906	49.592621
3126.273926	28.924631
3125.668945	28.920235
3125.063721	61.962509
3124.458252	24.781237
3123.853027	45.425358
3123.247559	74.321106
3122.641846	45.411549
3122.036133	61.915421
3121.430420	12.381201
3120.824707	33.011517
3120.218750	41.258118
3119.612549	37.126659
3119.006592	37.121014
3118.400391	32.991436
3117.793945	57.726234
3117.187500	24.736052
3116.581055	41.220482
3115.974609	37.092789
3115.367920	45.328732
3114.760986	24.721003
3114.154297	0.000000
3113.547363	41.189133
3112.940186	41.182865
3112.333008	49.411919
3111.725830	57.638466
3111.118408	28.814846
3110.510986	16.463121
3109.903564	49.381844
3109.295898	32.916218
3108.688232	37.025108
3108.080566	41.132748
3107.472656	24.675892
3106.864746	41.120224
3106.256592	45.225361
3105.648438	24.664623
3105.040039	45.211590
3104.431885	4.109519
3103.823486	16.435572
3103.214844	16.433069
3102.606201	32.861134
3101.997559	8.214032
3101.388672	49.276688
3100.779785	45.163418
3100.170898	45.156536
3099.561768	73.881256
3098.952637	20.519445
3098.343262	4.103264
3097.733887	24.615833
3097.124512	41.020138
3096.514893	36.912498
3095.905273	24.604584
3095.295410	57.401947
3094.685791	16.398056
3094.075684	4.098889
3093.465820	73.768768
3092.855713	32.781120
3092.245361	32.776127
3091.635254	45.060303
3091.024658	24.574600
3090.414307	40.951424
3089.803711	16.378073
3089.193115	28.657257
3088.582275	36.839428
3087.971436	49.111748
3087.360596	32.736176
3086.749512	0.000000
3086.138428	28.635418
3085.527100	16.360600
3084.915771	32.716209
3084.304443	32.711220
3083.692871	65.412460
3083.081299	8.175311
3082.469482	20.435160
3081.857910	12.259226
3081.245850	24.514711
3080.634033	49.021942
3080.021973	32.676308
3079.409668	20.419577
3078.797607	16.333170
3078.185059	44.909363
3077.572754	53.066601
3076.960205	48.977081
3076.347656	40.808006
3075.734863	36.721600
3075.122070	28.556885
3074.509033	20.394661
3073.895996	65.252960
3073.282959	0.000000
3072.669922	-4.077065
3072.056641	40.764423
3071.443115	-4.075820
3070.829834	28.526384
3070.216064	44.820332
3069.602539	48.887444
3068.988770	20.366657
3068.375000	32.581676
3067.760986	32.576698
3067.146973	24.428793
3066.532715	44.779282
3065.918701	32.561775
3065.304199	4.069601
3064.689941	12.206936
3064.075439	48.820286
3063.460693	56.948299
3062.846191	65.073830
3062.231445	28.465450
3061.616455	24.395229
3061.001465	40.652504
3060.386475	16.258516
3059.771240	48.768097
3059.156006	56.887421
3058.540771	52.815960
3057.925293	24.372871
3057.309814	28.430672
3056.694092	32.487228
3056.078369	20.301414
3055.462646	28.417637
3054.846680	36.531376
3054.230713	48.701054
3053.614502	52.751411
3052.998291	20.285902
3052.382080	48.678719
3051.765625	20.279699
3051.149170	32.442558
3050.532715	28.382896
3049.916016	36.486713
3049.299316	16.213837
3048.682373	12.158519
3048.065430	20.261099
3047.448486	32.412800
3046.831299	32.407841
3046.214111	40.503605
3045.596680	4.049741
3044.979248	28.343849
3044.361816	52.630524
3043.744141	36.430943
3043.126465	44.519894
3042.508545	48.559723
3041.890869	40.460243
3041.272705	16.181622
3040.654785	52.582222
3040.036621	36.397503
3039.418213	52.566128
3038.799805	44.472221
3038.181396	32.338482
3037.562988	32.333534
3036.944336	20.205364
3036.325439	-4.040454
3035.706543	8.079672
3035.087646	64.627480
3034.468750	56.540382
3033.849609	52.493744
3033.230469	24.224173
3032.611084	44.404182
3031.991699	60.541885
3031.372070	24.213045
3030.752441	24.209337
3030.132813	36.308441
3029.513184	32.269230
3028.893066	48.396427
3028.273193	56.453850
3027.653076	28.222601
3027.032959	32.249458
3026.412598	-4.030565
3025.792480	44.329418
3025.171875	68.498604
3024.551270	52.373260
3023.930664	52.365234
3023.310059	40.274776
3022.689209	28.188023
3022.068115	44.288677
3021.447266	64.410019
3020.826172	24.150055
3020.204834	36.219528
3019.583496	64.380402
3018.962158	68.393692
3018.340576	60.338123
3017.718994	40.219250
3017.097412	28.149158
3016.475586	44.227608
3015.853760	52.260979
3015.231689	44.214046
3014.609619	20.094212
3013.987549	28.127583
3013.365234	24.105658
3012.742920	52.220917
3012.120361	60.245663
3011.497803	28.110329
3010.875244	40.151455
3010.252441	36.130764
3009.629639	44.153049
3009.006836	52.172871
3008.383789	40.126820
3007.760498	32.096531
3007.137451	44.125957
3006.514160	28.075846
3005.890625	28.071537
3005.267090	56.134457
3004.643555	56.125843
3004.019775	28.058615
3003.395996	64.124130
3002.772217	40.071430
3002.148193	48.078335
3001.524170	40.059128
3000.899902	68.090065
3000.275635	28.032782
2999.651367	36.036613
2999.026855	12.010360
2998.402344	52.036903
2997.777588	32.017792
2997.152832	52.020924
2996.528076	52.012932
2995.903076	40.003803
2995.278076	7.999532
2994.653076	71.984726
2994.027832	15.994149
2993.402344	39.979233
2992.777100	11.991927
2992.151367	19.983475
2991.525879	67.933372
2990.900146	19.977335
2990.274414	67.912498
2989.648438	47.930870
2989.022461	43.929878
2988.396240	35.937107
2987.770264	63.878368
2987.143799	35.926060
2986.517578	23.947025
2985.891113	55.867805
2985.264404	35.909496
2984.637695	59.839962
2984.010986	31.909740
2983.384033	43.869148
2982.757080	39.874912
2982.130127	39.868782
2981.502930	55.807713
2980.875732	11.956957
2980.248291	39.850395
2979.620850	47.813118
2978.993408	27.886696
2978.365723	35.848808
2977.738037	67.704002
2977.110107	43.801735
2976.482178	43.794998
2975.854248	47.769012
2975.226074	63.682220
2974.597900	47.754318
2973.969482	43.768055
2973.341309	67.631134
2972.712646	59.665348
2972.083984	51.702011
2971.455322	39.764660
2970.826660	67.589516
2970.197754	35.777180
2969.568604	31.797043
2968.939697	63.584297
2968.310547	35.760662
2967.681152	27.809566
2967.051758	23.833103
2966.422363	51.630440
2965.792725	43.680569
2965.163086	67.495941
2964.533203	27.788168
2963.903564	63.506031
2963.273438	7.937032
2962.643311	67.454384
2962.013184	31.738350
2961.383057	23.800097
2960.752686	71.389297
2960.122314	43.620071
2959.491699	43.613354
2958.861084	51.535114
2958.230225	51.527176
2957.599609	35.667164
2956.968506	51.511303
2956.337646	63.388760
2955.706299	71.301369
2955.075195	43.566341
2954.443848	51.479565
2953.812500	59.390343
2953.180908	51.463699
2952.549316	87.078995
2951.917725	94.980621
2951.285889	59.353741
2950.653809	71.213509
2950.021973	67.246834
2949.389893	43.505951
2948.757568	71.180580
2948.125244	79.077347
2947.492920	43.485836
2946.860352	86.958260
2946.227783	71.136696
2945.595215	47.417152
2944.962402	67.163940
2944.329590	55.302952
2943.696533	75.042427
2943.063477	94.775818
2942.430420	82.916054
2941.797119	82.903259
2941.163574	102.626305
2940.530273	78.931129
2939.896729	122.324379
2939.262939	98.633476
2938.629150	110.452454
2937.995361	110.435410
2937.361328	106.474854
2936.727295	118.287140
2936.093262	118.268890
2935.458984	118.250641
2934.824707	102.468071
2934.190186	126.095085
2933.555664	114.256035
2932.921143	141.813187
2932.286377	165.423172
2931.651367	114.203133
2931.016602	110.248070
2930.381592	129.915176
2929.746338	153.512405
2929.111084	153.488708
2928.475830	153.465012
2927.840332	165.244492
2927.204834	141.616257
2926.569336	133.728027
2925.933594	125.842239
2925.297607	141.550659
2924.661865	153.322861
2924.025879	176.883667
2923.389648	157.205643
2922.753418	153.251831
2922.117188	141.441376
2921.480713	125.706238
2920.844238	161.036240
2920.207764	145.302933
2919.571045	176.692474
2918.934082	149.183929
2918.297363	160.936722
2917.660156	149.137817
2917.023193	164.811066
2916.385986	156.938660
2915.748779	149.068680
2915.111328	137.278885
2914.473877	149.022598
2913.836182	172.525818
2913.198486	141.135666
2912.560791	195.991455
2911.922852	168.526581
2911.284912	168.500534
2910.646729	203.736572
2910.008545	188.035446
2909.370361	188.006378
2908.731934	195.809692
2908.093506	180.117050
2907.455078	156.599304
2906.816406	172.232590
2906.177490	164.378403
2905.538574	187.831970
2904.899658	234.753647
2904.260498	207.333649
2903.621338	191.656158
2902.982178	179.894272
2902.342773	222.877991
2901.703369	222.843506
2901.063721	187.628647
2900.424072	242.316162
2899.784424	207.109177
2899.144531	210.984238
2898.504639	253.923203
2897.864502	203.107132
2897.224365	210.886292
2896.583984	273.328796
2895.943848	245.957840
2895.303223	277.147675
2894.662842	257.590332
2894.021973	292.670990
2893.381348	241.903885
2892.740479	273.075012
2892.099609	273.032715
2891.458496	218.392349
2890.817383	249.552597
2890.176025	237.817978
2889.534668	268.965576
2888.893311	280.616241
2888.251709	253.294876
2887.610107	296.114288
2886.968262	331.129150
2886.326416	288.232483
2885.684570	331.026550
2885.042480	288.143158
2884.400391	334.817200
2883.758057	369.798920
2883.115723	361.957581
2882.473389	354.118652
2881.830811	474.678894
2881.188232	509.617188
2880.545410	560.103088
2879.902588	560.016235
2879.259766	606.590271
2878.616699	622.047424
2877.973633	649.161316
2877.330322	621.854553
2876.687012	582.898254
2876.043457	505.100159
2875.399902	477.828369
2874.756348	493.290985
2874.112549	446.611542
2873.468750	403.829559
2872.824707	345.531311
2872.180664	364.886566
2871.536621	364.829987
2870.892334	349.251129
2870.248047	360.836853
2869.603760	341.384064
2868.958984	294.785950
2868.314453	341.278137
2867.669678	302.449585
2867.024902	325.664429
2866.379883	341.119293
2865.734863	313.936096
2865.089844	279.010986
2864.444580	306.089569
2863.799316	325.411804
2863.153809	255.641022
2862.508301	302.074310
2861.862549	302.027435
2861.216797	301.980530
2860.571045	325.159332
2859.925049	379.293671
2859.279053	383.104523
2858.632813	398.521606
2857.986572	309.483276
2857.340332	371.322266
2856.693848	375.131958
2856.047363	336.406311
2855.400635	398.212280
2854.753906	344.032898
2854.107178	417.413269
2853.460205	432.805786
2852.813232	475.239685
2852.166016	475.165863
2851.518799	463.504425
2850.871338	498.189850
2850.223877	486.528442
2849.576416	498.035065
2848.928711	513.398193
2848.281006	536.475647
2847.633301	540.251221
2846.985352	536.308960
2846.337158	540.083313
2845.688965	605.570740
2845.040771	574.624329
2844.392578	655.509705
2843.743896	574.445679
2843.095459	620.613281
2842.446777	597.391968
2841.798096	520.228210
2841.149170	527.853210
2840.500244	535.475830
2839.851074	466.061157
2839.202148	450.584106
2838.552734	465.916229
2837.903320	327.245636
2837.253906	427.277832
2836.604492	334.841339
2835.954834	334.789276
2835.304932	369.365173
2834.655029	296.215576
2834.005127	311.554901
2833.354980	188.442169
2832.704834	211.483810
2832.054688	222.984589
2831.404297	207.574036
2830.753906	169.108093
2830.103271	180.610077
2829.452637	142.160278
2828.801758	126.771858
2828.150879	119.070183
2827.500000	138.253525
2826.848877	134.392227
2826.197754	126.692955
2825.546387	92.125984
2824.895020	172.709335
2824.243408	111.284241
2823.591797	122.777283
2822.940186	107.413399
2822.288330	65.205124
2821.636475	80.534958
2820.984619	92.025620
2820.332520	99.678902
2819.680176	107.329788
2819.028076	88.150024
2818.375488	72.808243
2817.723145	84.291145
2817.070557	107.262932
2816.417725	72.774223
2815.764893	72.762886
2815.112061	57.435432
2814.458984	68.911781
2813.805908	49.761864
2813.152832	84.199265
2812.499512	80.359505
2811.845947	76.520935
2811.192383	53.556305
2810.538818	91.796501
2809.885010	61.188126
2809.231201	99.415207
2808.577393	57.345985
2807.923340	61.159519
2807.269287	80.259354
2806.614990	57.319172
2805.960693	76.413643
2805.306152	64.941475
2804.651611	38.194908
2803.997070	53.464535
2803.342285	61.092796
2802.687500	72.536385
2802.032471	83.976395
2801.377441	41.981647
2800.722412	76.318367
2800.067139	91.567757
2799.411621	45.776733
2798.756348	72.468521
2798.100586	72.457214
2797.445068	41.942371
2796.789307	68.622261
2796.133301	68.611557
2795.477539	45.733898
2794.821289	68.590141
2794.165283	68.579437
2793.509033	53.331238
2792.852539	38.087795
2792.196045	110.437370
2791.539551	83.766998
2790.882813	76.139931
2790.226074	72.321640
2789.569092	95.145195
2788.912109	45.662563
2788.255127	64.678535
2787.597900	60.864410
2786.940430	45.641178
2786.283203	72.253914
2785.625488	79.847122
2784.968018	57.024750
2784.310303	45.612675
2783.652588	87.410637
2782.994629	60.797901
2782.336426	72.186234
2781.678467	64.577591
2781.020264	53.173237
2780.361816	64.557419
2779.703369	60.750427
2779.044922	56.944626
2778.386230	49.344299
2777.727539	72.107323
2777.068604	53.123409
2776.409668	72.084785
2775.750732	98.626923
2775.091553	60.684006
2774.432373	87.219620
2773.772949	64.456604
2773.113525	106.147217
2772.453857	37.903793
2771.794189	60.636589
2771.134521	68.205498
2770.474609	49.251823
2769.814697	37.880096
2769.154541	68.173508
2768.494385	41.655075
2767.833984	83.297119
2767.173584	87.069733
2766.513184	90.841164
2765.852539	60.551304
2765.191895	37.838646
2764.531006	45.399273
2763.870117	68.088257
2763.209229	56.731335
2762.548096	60.503956
2761.886719	49.151775
2761.225586	86.947227
2760.563965	22.678335
2759.902588	86.920013
2759.240967	71.792252
2758.579102	90.670761
2757.917236	64.215073
2757.255371	67.981789
2756.593262	79.299667
2755.931152	71.736092
2755.269043	30.199940
2754.606689	67.939232
2753.944092	86.797646
2753.281494	49.051857
2752.618896	86.770470
2751.956055	75.440765
2751.293213	56.571716
2750.630371	56.562855
2749.967285	71.635063
2749.303955	86.702545
2748.640625	86.688972
2747.977295	79.138397
2747.313721	56.518574
2746.650146	67.811668
2745.986572	60.267593
2745.322754	86.621094
2744.658691	64.014252
2743.994873	82.828995
2743.330566	63.994194
2742.666504	63.984169
2742.002197	45.158218
2741.337646	56.438927
2740.673096	48.906071
2740.008545	75.228317
2739.343750	97.781479
2738.678955	105.286629
2738.013916	60.154354
2737.348877	90.217392
2736.683594	97.720184
2736.018311	86.431221
2735.353027	71.388512
2734.687500	71.377319
2734.021973	75.122238
2733.356201	71.354935
2732.690430	41.304272
2732.024658	75.086899
2731.358643	82.582634
2730.692383	101.335518
2730.026367	63.793839
2729.359863	131.319656
2728.693604	105.039246
2728.027100	112.524391
2727.360352	146.258759
2726.693604	116.238724
2726.026855	127.467628
2725.359863	108.705330
2724.692871	112.436142
2724.025635	138.649475
2723.358398	127.387634
2722.691162	112.383209
2722.023682	146.075241
2721.355957	127.327660
2720.688477	149.773727
2720.020508	146.006470
2719.352783	127.267708
2718.684814	123.505142
2718.016602	123.485756
2717.348389	138.431992
2716.680176	93.520439
2716.011719	130.908051
2715.343262	157.064987
2714.674561	97.215439
2714.005859	127.107918
2713.337158	164.466766
2712.668213	142.017166
2711.999023	115.837914
2711.329834	138.236435
2710.660645	112.065987
2709.991455	93.373650
2709.321777	123.233856
2708.652344	108.279404
2707.982666	104.529205
2707.312988	126.908371
2706.643066	175.404587
2705.972900	104.479927
2705.302979	93.270988
2704.632813	85.795822
2703.962402	104.430672
2703.291992	108.143341
2702.621582	115.583328
2701.950928	100.653526
2701.280273	119.274315
2700.609375	100.621880
2699.938477	104.332207
2699.267334	134.120316
2698.596191	70.774590
2697.925049	104.282997
2697.253662	100.542793
2696.582031	89.357315
2695.910645	67.007446
2695.239014	93.051254
2694.567139	104.201012
2693.895264	96.742867
2693.223145	104.168236
2692.551270	107.871552
2691.878906	78.101593
2691.206543	74.370766
2690.534180	107.820641
2689.861816	111.521042
2689.189209	81.769234
2688.516357	55.742973
2687.843506	130.046463
2687.170654	96.590744
2686.497559	66.859993
2685.824463	77.991043
2685.151123	66.838943
2684.477783	89.104561
2683.804199	66.817902
2683.130615	92.788025
2682.457031	103.906227
2681.783203	100.179512
2681.109375	77.905128
2680.435303	59.346943
2679.761230	77.880592
2679.086914	81.576347
2678.412598	92.685791
2677.738281	70.430107
2677.063721	107.481651
2676.389160	77.819283
2675.714355	74.101929
2675.039551	103.726349
2674.364502	70.374649
2673.689453	59.253525
2673.014404	74.055237
2672.339111	114.767525
2671.663574	66.628708
2670.988037	85.123268
2670.312500	37.004284
2669.636719	81.396591
2668.960938	81.383759
2668.285156	88.768288
2667.609131	59.169533
2666.932861	51.765179
2666.256592	85.029388
2665.580322	88.712326
2664.903809	81.306808
2664.227295	110.855446
2663.550781	99.754166
2662.874023	51.716225
2662.197021	103.416138
2661.520020	59.085617
2660.843018	81.229912
2660.165771	77.525414
2659.488525	107.042015
2658.811035	84.881996
2658.133545	84.868607
2657.455811	99.612648
2656.778076	106.974480
2656.100342	77.452057
2655.422363	92.190285
2654.744385	77.427620
2654.066162	110.593430
2653.387939	88.460777
2652.709473	88.446815
2652.031006	140.018692
2651.352539	114.207748
2650.673828	92.088486
2649.994873	81.025070
2649.316162	51.553268
2648.636963	103.090263
2647.958008	66.261848
2647.278809	106.738342
2646.599365	106.721489
2645.919922	125.101990
2645.240479	44.146671
2644.560791	73.566162
2643.880859	110.331818
2643.201172	73.542931
2642.520996	91.914139
2641.841064	95.575607
2641.160889	66.157280
2640.480469	95.545410
2639.800049	80.833344
2639.119629	80.820580
2638.438965	99.173218
2637.758301	88.140038
2637.077393	84.454193
2636.396484	80.769508
2635.715332	77.085976
2635.034180	66.063255
2634.353027	66.052811
2633.671631	55.035309
2632.989990	91.711021
2632.308350	99.032242
2631.626709	88.014740
2630.944824	77.000725
2630.262939	80.654671
2629.581055	109.966255
2628.898926	102.618942
2628.216553	102.602715
2627.534180	76.939865
2626.851807	102.570267
2626.169189	65.927597
2625.486572	113.524017
2624.803711	98.860115
2624.120850	139.114456
2623.437988	113.470154
2622.754883	120.771698
2622.071533	91.479240
2621.388184	76.830399
2620.704834	73.160233
2620.021240	91.435822
2619.337646	98.735062
2618.653809	102.375710
2617.969971	76.769630
2617.286133	109.653549
2616.602051	73.090797
2615.917725	73.079224
2615.233398	73.067657
2614.549072	94.972916
2613.864502	91.305656
2613.179932	113.201088
2612.495117	105.881027
2611.810303	73.009834
2611.125488	83.948013
2610.440430	102.181404
2609.755127	83.921432
2609.069824	98.500862
2608.384521	83.894852
2607.698975	94.822632
2607.013428	72.928932
2606.327637	80.209122
2605.641846	91.132286
2604.956055	98.407280
2604.270020	123.900642
2603.583740	91.088982
2602.897461	98.360512
2602.211182	94.702522
2601.524658	83.762032
2600.838135	72.825005
2600.151367	58.250774
2599.464600	65.521736
2598.777832	94.627502
2598.090820	80.056732
2597.403564	105.512604
2596.716309	101.858086
2596.029053	127.302422
2595.341553	83.642616
2594.654053	119.989944
2593.966309	83.616096
2593.278564	109.047173
2592.590820	105.395554
2591.902832	112.646347
2591.214600	79.929886
2590.526367	116.243217
2589.838135	87.168587
2589.149658	83.523308
2588.461182	98.033546
2587.772461	76.236221
2587.083740	87.113289
2586.394775	127.020050
2585.705811	94.342781
2585.016846	101.583801
2584.327637	68.920921
2583.638184	123.312607
2582.948975	126.919304
2582.259277	72.513809
2581.569824	76.127411
2580.879883	94.238029
2580.190186	126.838745
2579.500244	90.584724
2578.810059	68.833458
2578.119873	83.311485
2577.429688	72.433266
2576.739258	90.527206
2576.048584	65.169243
2575.358154	97.738335
2574.667236	86.864723
2573.976563	90.469719
2573.285645	104.928207
2572.594482	97.676262
2571.903320	79.575424
2571.212158	104.878212
2570.520752	94.013809
2569.829102	90.383530
2569.137451	79.524872
2568.445801	79.512238
2567.753906	65.045128
2567.062012	79.486969
2566.370117	101.149155
2565.677979	90.297394
2564.985596	57.781147
2564.293213	72.214958
2563.600830	108.305214
2562.908203	108.288002
2562.215332	83.007607
2561.522705	97.428215
2560.829590	68.549698
2560.136719	97.397240
2559.443604	75.741364
2558.750244	79.335480
2558.056885	97.350792
2557.363525	82.915260
2556.669922	108.133141
2555.976074	64.869568
2555.282227	90.082291
2554.588379	72.054367
2553.894287	90.053635
2553.200195	90.039314
2552.505859	50.413994
2551.811523	75.608955
2551.117188	75.596931
2550.422607	93.581306
2549.727783	104.362541
2549.032959	82.757118
2548.338135	71.951263
2547.643066	97.118744
2546.947998	100.699707
2546.252686	82.704445
2545.557373	64.714920
2544.861816	46.731113
2544.166260	82.664963
2543.470703	75.464684
2542.774902	89.824608
2542.078857	64.663422
2541.382813	79.020485
2540.686768	89.781708
2539.990479	93.358109
2539.294189	71.802490
2538.597656	104.097031
2537.901123	86.135551
2537.204346	118.417519
2536.507568	64.581085
2535.810791	96.856194
2535.113770	71.733902
2534.416504	118.342079
2533.719238	75.296600
2533.021973	100.379463
2532.324463	53.766144
2531.626953	100.347481
2530.929199	89.581688
2530.231445	85.984711
2529.533447	85.971008
2528.835449	89.538864
2528.137451	96.686554
2527.439209	125.314445
2526.740723	82.336365
2526.042236	114.536682
2525.343750	100.203621
2524.645020	96.609512
2523.946289	128.792145
2523.247314	128.771606
2522.548340	71.528374
2521.849121	110.851303
2521.149902	128.710007
2520.450684	110.815948
2519.751221	96.501717
2519.051514	107.207031
2518.351807	110.762924
2517.652100	96.455544
2516.952148	100.012016
2516.252197	117.852501
2515.552002	121.404411
2514.851807	96.394005
2514.151367	96.378624
2513.450928	74.949188
2512.750244	128.463821
2512.049561	85.628876
2511.348877	96.317108
2510.647949	117.702126
2509.946777	78.455559
2509.245605	71.311852
2508.544434	85.560555
2507.843018	81.982445
2507.141602	96.224892
2506.439941	67.703003
2505.738281	71.254936
2505.036377	110.427521
2504.334473	64.108963
2503.632568	89.026009
2502.930420	92.572266
2502.228027	88.997574
2501.525635	88.983360
2500.823242	67.616547
2500.120605	60.489353
2499.417969	113.844124
2498.715088	81.812393
2498.012207	67.573349
2497.309082	88.898094
2496.605957	78.217827
2495.902588	110.198410
2495.199219	145.722992
2494.495605	85.287636
2493.791992	81.720917
2493.088379	95.917915
2492.384521	81.694794
2491.680664	102.990013
2490.976563	117.176796
2490.272461	120.708313
2489.568115	106.490303
2488.863770	99.375061
2488.159180	110.004791
2487.454590	109.987206
2486.749756	120.611832
2486.044922	109.952026
2485.339844	95.749352
2484.634766	113.462563
2483.929688	85.083313
2483.224365	116.970840
2482.519043	88.600098
2481.813477	120.476852
2481.107666	85.028877
2480.402100	85.015274
2479.696045	106.252090
2478.990234	102.693916
2478.284180	102.677483
2477.577881	95.580978
2476.871582	120.341972
2476.165039	123.861610
2475.458496	88.458420
2474.751953	99.057571
2474.045166	95.504509
2473.338379	113.172409
2472.631348	95.473930
2471.924072	109.600670
2471.217041	70.698792
2470.509521	102.496826
2469.802246	102.480415
2469.094482	91.864281
2468.386963	60.055485
2467.679199	116.559624
2466.971191	98.883232
2466.263184	95.336418
2465.554932	134.155685
2464.846680	102.365570
2464.138428	102.349174
2463.429932	95.275345
2462.721436	112.900833
2462.012695	91.717224
2461.303955	88.175507
2460.594971	91.687836
2459.885986	95.199028
2459.176758	88.133125
2458.467529	98.693275
2457.758057	116.298431
2457.048584	116.279793
2456.338867	112.738083
2455.629150	88.062508
2454.919434	123.267746
2454.209473	130.290726
2453.499512	105.624191
2452.789307	91.526283
2452.078857	70.393547
2451.368408	98.535164
2450.657959	119.630646
2449.947266	98.503555
2449.236572	91.452919
2448.525879	133.640518
2447.814697	94.939873
2447.103760	112.503281
2446.392578	137.091370
2445.681152	130.040176
2444.969727	98.392998
2444.258301	108.917625
2443.546631	112.413055
2442.834717	87.808601
2442.122803	126.424095
2441.410889	119.381371
2440.698730	84.255676
2439.986572	133.383408
2439.274170	136.871521
2438.561768	115.795776
2437.849121	115.777191
2437.136475	122.774277
2436.423584	80.667282
2435.710693	112.214722
2434.997803	94.665970
2434.284424	133.212189
2433.571289	133.190796
2432.857910	112.142654
2432.144287	136.651917
2431.430908	115.609970
2430.717041	98.077553
2430.003174	115.572830
2429.289307	105.049332
2428.575195	91.028122
2427.861084	133.019730
2427.146729	122.498489
2426.432373	118.979408
2425.717773	97.967300
2425.003174	129.435989
2424.288330	66.456444
2423.573486	122.400093
2422.858643	104.897499
2422.143555	122.360748
2421.428223	87.386482
2420.712891	94.362228
2419.997559	97.841393
2419.281982	108.306984
2418.566162	87.330299
2417.850586	111.764809
2417.134521	108.254745
2416.418457	122.203445
2415.702393	115.201866
2414.986084	122.164146
2414.269775	94.225754
2413.553223	97.699883
2412.836670	118.616486
2412.120117	136.038193
2411.403076	87.189941
2410.686279	108.098137
2409.969238	125.513123
2409.251953	108.063354
2408.534668	135.928787
2407.817383	111.513367
2407.099854	97.558495
2406.382080	118.444824
2405.664307	121.908867
2404.946533	90.546295
2404.228516	167.135483
2403.510498	97.480003
2402.792236	125.311264
2402.073975	121.810776
2401.355469	135.710159
2400.636963	107.854805
2399.918213	128.709198
2399.199463	100.863937
2398.480469	86.937668
2397.761475	86.923668
2397.042480	118.197151
2396.323242	128.605591
2395.603760	107.733276
2394.884277	128.564163
2394.164795	118.121010
2393.445068	125.049156
2392.725098	97.244781
2392.005127	93.756645
2391.285156	97.213448
2390.564941	121.497231
2389.844727	118.006859
2389.124268	117.987839
2388.403809	117.968826
2387.683105	145.702713
2386.962402	121.399353
2386.241455	124.847778
2385.520508	104.023041
2384.799316	100.539398
2384.078125	100.523186
2383.356689	90.109703
2382.635254	100.490776
2381.913818	103.939209
2381.192139	110.850609
2380.470215	114.296257
2379.748291	121.203751
2379.026367	100.409767
2378.304199	110.779114
2377.581787	128.067688
2376.859375	124.586296
2376.136963	110.725510
2375.414307	93.409576
2374.691650	131.444122
2373.968750	100.296432
2373.245850	121.027885
2372.522705	131.380493
2371.799316	114.075180
2371.076172	138.250626
2370.352783	110.582649
2369.629150	82.923599
2368.905518	100.183174
2368.181641	145.069458
2367.457764	131.232132
2366.733643	138.116776
2366.009521	110.475586
2365.285400	86.295113
2364.561035	89.732430
2363.836426	110.422073
2363.111816	141.455429
2362.387207	117.285561
2361.662354	117.266617
2360.937256	137.938446
2360.212158	134.468262
2359.487061	124.104500
2358.761719	127.531235
2358.036377	113.725700
2357.310791	127.490036
2356.584961	141.249908
2355.859375	117.115143
2355.133301	92.988174
2354.407471	99.860046
2353.681152	137.715744
2352.955078	82.616089
2352.228516	123.904099
2351.502197	147.972641
2350.775635	120.423378
2350.048828	144.484695
2349.322021	113.505333
2348.594971	116.925980
2347.867920	134.099289
2347.140869	137.515503
2346.413330	109.994606
2345.686035	134.034256
2344.958496	109.959038
2344.230713	130.555237
2343.502930	109.923470
2342.775146	151.120316
2342.047119	144.227875
2341.319092	103.003250
2340.590820	96.120811
2339.862305	113.266914
2339.133789	120.112137
2338.405273	120.092705
2337.676514	133.795929
2336.947754	102.903290
2336.218750	116.604851
2335.489746	116.585983
2334.760498	113.138664
2334.031250	123.404022
2333.301758	161.084732
2332.572266	113.083733
2331.842529	123.344101
2331.112793	140.452484
2330.382813	82.202774
2329.652832	140.406998
2328.922607	126.688240
2328.192383	112.973915
2327.462158	130.070114
2326.731689	126.626701
2326.000977	147.136917
2325.270264	109.479507
2324.539307	164.192657
2323.808350	140.225174
2323.077393	109.426315
2322.346191	123.084656
2321.614746	133.320099
2320.883301	146.970139
2320.151855	109.355408
2319.420166	133.255310
2318.688232	119.568710
2317.956299	112.717941
2317.224365	133.190521
2316.492188	129.754349
2315.760010	116.077179
2315.027588	112.644875
2314.295166	112.626617
2313.562500	112.608353
2312.829590	153.531952
2312.096924	136.450714
2311.363770	133.017883
2310.630615	132.996307
2309.897461	153.432388
2309.164063	126.135056
2308.430664	132.931610
2307.697021	129.502090
2306.963379	132.888489
2306.229492	122.646393
2305.495605	143.064240
2304.761719	149.852509
2304.027344	122.586708
2303.293213	122.566818
2302.558838	139.567337
2301.824219	108.912926
2301.089600	142.925018
2300.354736	146.304245
2299.619873	136.074875
2298.885010	136.052795
2298.149658	136.030716
2297.414551	115.607330
2296.679199	142.785873
2295.943604	125.767136
2295.208008	115.551033
2294.472412	173.298401
2293.736572	139.295700
2293.000488	129.082367
2292.264404	132.457764
2291.528320	125.644646
2290.791992	139.205231
2290.055420	128.998535
2289.318848	149.342453
2288.582275	125.563026
2287.845459	122.149582
2287.108398	98.382294
2286.371582	125.501839
2285.634277	135.655624
2284.896973	135.633575
2284.159668	135.611526
2283.422119	145.758713
2282.684570	155.902573
2281.946777	128.768158
2281.208740	155.851898
2280.470703	142.276428
2279.732666	118.544418
2278.994385	118.525146
2278.256104	125.277641
2277.517578	159.110580
2276.779053	165.854279
2276.040283	135.369232
2275.301514	172.567703
2274.562500	108.260162
2273.823486	121.772873
2273.084229	128.517136
2272.344971	162.311020
2271.605469	165.665543
2270.865967	111.552528
2270.126221	148.712509
2269.386475	165.584702
2268.646484	145.285385
2267.906494	148.639923
2267.166260	138.482849
2266.426025	135.083237
2265.685547	138.437775
2264.945068	148.543198
2264.204346	199.150497
2263.463623	168.744141
2262.722656	158.593674
2261.981689	134.951355
2261.240723	138.302628
2260.499268	145.025482
2259.758057	151.746140
2259.016602	121.377144
2258.274902	175.293991
2257.533203	151.672028
2256.791260	131.427673
2256.049316	138.145050
2255.307129	151.597931
2254.564941	138.100052
2253.822754	144.813049
2253.080322	171.727036
2252.337646	134.665924
2251.594971	141.376190
2250.852051	148.084259
2250.109131	127.870110
2249.366211	161.493820
2248.623047	124.464531
2247.879639	127.807602
2247.136230	137.875198
2246.392578	168.113083
2245.648926	147.915405
2244.905273	127.724297
2244.161377	141.145935
2243.417236	161.283356
2242.673096	154.538010
2241.928955	151.153839
2241.184570	154.487625
2240.439941	147.746674
2239.695313	114.149261
2238.950439	154.412048
2238.205566	147.674393
2237.460693	174.495819
2236.715576	171.112213
2235.970215	154.311325
2235.224854	154.286148
2234.479492	171.028488
2233.733887	157.588776
2232.988037	117.334190
2232.242188	140.778046
2231.496338	170.916885
2230.750244	120.627525
2230.003906	160.810455
2229.257568	150.735184
2228.511230	137.314087
2227.764648	167.428879
2227.017822	154.009415
2226.270996	147.289307
2225.523926	170.693817
2224.776855	157.280396
2224.029785	130.487946
2223.282471	120.430748
2222.534912	133.790085
2221.787354	157.177689
2221.039795	137.090057
2220.291992	157.126343
2219.543945	163.785812
2218.795898	150.390976
2218.047852	106.927223
2217.299561	167.046494
2216.551025	163.678818
2215.802490	136.933365
2215.053955	146.928864
2214.305176	126.872383
2213.556152	120.175247
2212.807129	146.856857
2212.058105	153.507065
2211.308838	163.491669
2210.559326	140.112808
2209.809814	156.767288
2209.060303	143.401932
2208.310547	150.047256
2207.560547	160.024246
2206.810547	143.331619
2206.060303	156.639175
2205.310059	159.945755
2204.559814	146.592972
2203.809326	143.237885
2203.058594	146.545029
2202.307861	156.511124
2201.557129	173.132919
2200.806152	146.473129
2200.054932	123.150436
2199.303711	156.408737
2198.552246	129.764740
2197.800781	133.070267
2197.049316	159.658188
2196.297607	186.237411
2195.545654	149.630569
2194.793701	159.579819
2194.041504	166.201782
2193.289307	159.527588
2192.537109	176.116211
2191.784668	159.475372
2191.031982	172.736694
2190.279297	195.957626
2189.526367	146.113968
2188.773438	156.050720
2188.020508	199.181076
2187.267090	155.999619
2186.513916	162.611267
2185.760498	199.083237
2185.006836	189.098099
2184.253174	169.165314
2183.499268	162.504761
2182.745361	175.741669
2181.991211	155.820847
2181.237061	145.850937
2180.482666	149.141296
2179.728271	185.567642
2178.973877	149.092422
2178.218994	185.506836
2177.464355	185.476425
2176.709229	195.380646
2175.954346	218.525574
2175.198975	162.212082
2174.443848	142.326050
2173.688232	162.158905
2172.932861	178.676437
2172.177002	178.647156
2171.421387	181.925598
2170.665283	178.588562
2169.909424	142.186096
2169.153076	165.305557
2168.396729	185.111862
2167.640381	168.556366
2166.883789	185.051147
2166.127197	151.981369
2165.370361	155.259842
2164.613525	165.142944
2163.856445	151.906586
2163.099365	168.390533
2162.342041	217.881409
2161.584473	161.733887
2160.826904	165.007507
2160.069336	145.182770
2159.311523	141.859879
2158.553711	197.911530
2157.795654	164.899200
2157.037354	171.467026
2156.279053	151.657471
2155.520752	168.114365
2154.762207	168.086777
2154.003662	171.354446
2153.244873	158.147369
2152.485840	158.121399
2151.726807	184.444672
2150.967773	177.828156
2150.208252	204.139542
2149.448975	177.769745
2148.689453	171.157562
2147.929688	177.711349
2147.169922	157.939697
2146.410156	187.522583
2145.650146	190.781097
2144.889893	226.926422
2144.129639	170.988922
2143.369141	193.974777
2142.608643	187.368561
2141.847900	161.044754
2141.087158	200.451340
2140.326416	190.561737
2139.565186	197.100433
2138.804199	170.792297
2138.042725	206.887421
2137.281494	121.485336
2136.519775	200.253708
2135.758301	157.550781
2134.996338	167.370178
2134.234619	200.154938
2133.472412	173.876511
2132.710449	203.369263
2131.947998	173.819321
2131.185547	186.907013
2130.423096	173.762146
2129.660400	206.513474
2128.897705	157.317719
2128.134766	163.845657
2127.371826	193.306076
2126.608643	176.895096
2125.845215	180.141281
2125.081787	180.111633
2124.318359	209.549957
2123.554688	173.504990
2122.790771	196.388428
2122.026855	193.083496
2121.262939	206.139969
2120.498779	212.649078
2119.734375	160.278290
2118.969971	179.874588
2118.205322	179.844971
2117.440674	183.084732
2116.676025	189.592255
2115.911133	196.097610
2115.145996	212.404099
2114.380859	202.567459
2113.615479	218.867493
2112.850098	186.170029
2112.084473	182.873764
2111.318848	169.783371
2110.552979	159.961823
2109.787109	156.671478
2109.020996	205.597427
2108.254883	189.248993
2107.488525	208.792053
2106.722168	218.543167
2105.955566	195.678040
2105.188965	231.514175
2104.422119	202.133987
2103.655029	221.658798
2102.887939	175.994156
2102.120850	247.654633
2101.353516	188.968430
2100.585938	192.194809
2099.818359	205.191132
2099.050781	221.439621
2098.282959	156.284546
2097.514893	172.535721
2096.746826	244.114059
2095.978760	195.259033
2095.210449	191.973053
2094.441895	230.980301
2093.673340	188.657013
2092.904541	195.130219
2092.135742	214.607834
2091.366699	208.070236
2090.597656	198.284210
2089.828369	195.001465
2089.059082	227.464172
2088.289551	198.186066
2087.520020	220.892258
2086.750244	188.377014
2085.980469	191.593262
2085.210449	207.795670
2084.440186	201.268814
2083.670166	181.761169
2082.899658	171.995575
2082.129150	191.435150
2081.358643	220.600693
2080.587891	230.295029
2079.816895	181.611160
2079.045898	194.551239
2078.274902	207.487045
2077.503662	230.142929
2076.732178	226.863998
2075.960693	207.384247
2075.188965	213.829666
2074.417236	210.555038
2073.645264	187.848831
2072.873291	200.770752
2072.101074	223.401489
2071.328857	200.704391
2070.556396	220.091019
2069.783936	271.832214
2069.011230	203.840454
2068.238525	236.157043
2067.465576	194.069595
2066.692627	187.569595
2065.919434	200.472275
2065.145996	232.768021
2064.372559	197.173630
2063.599121	242.386520
2062.825439	264.965424
2062.051514	255.229355
2061.277588	232.575623
2060.503662	206.699692
2059.729248	216.352951
2058.955078	209.859940
2058.180664	242.106018
2057.406006	213.018051
2056.631348	229.117874
2055.856445	267.797699
2055.081543	229.042053
2054.306396	219.327927
2053.531250	245.090637
2052.755859	216.030991
2051.980225	222.442856
2051.204590	196.619827
2050.428955	232.037445
2049.653076	212.665787
2048.877197	286.729095
2048.101074	251.249069
2047.324707	231.883820
2046.548340	222.185196
2045.771851	222.148407
2044.995239	231.768646
2044.218506	231.730270
2043.441528	247.781601
2042.664551	231.653503
2041.887329	231.615143
2041.110107	276.605591
2040.332642	254.049088
2039.555176	221.854218
2038.777466	289.327118
2037.999634	282.850739
2037.221802	250.667084
2036.443726	257.051849
2035.665527	253.796616
2034.887207	269.814972
2034.108765	260.135590
2033.330200	276.147583
2032.551514	256.838898
2031.772705	272.846069
2030.993774	247.125473
2030.214600	240.666718
2029.435425	256.668610
2028.656128	263.041687
2027.876587	272.619965
2027.097046	291.815308
2026.317261	269.323303
2025.537476	288.512848
2024.757446	253.208145
2023.977295	285.212494
2023.197021	256.328247
2022.416626	272.303589
2021.636230	269.055359
2020.855591	272.213257
2020.074707	300.985870
2019.293823	281.727264
2018.512817	252.872269
2017.731689	265.631836
2016.950439	275.187317
2016.168945	281.540283
2015.387451	332.674194
2014.605713	291.041595
2013.823975	316.575104
2013.041992	274.958984
2012.260010	294.093323
2011.477783	281.259949
2010.695435	284.408875
2009.912964	306.727142
2009.130371	297.092590
2008.347656	287.461212
2007.564819	284.219971
2006.781860	306.523438
2005.998779	284.125549
2005.215576	303.229706
2004.432129	280.839813
2003.648682	290.365631
2002.864990	309.459198
2002.081299	283.889618
2001.297363	245.571548
2000.513428	325.248535
1999.729248	322.006287
1998.944946	341.078674
1998.160522	305.963654
1997.375977	289.979828
1996.591309	315.420135
1995.806519	315.367676
1995.021606	296.205231
1994.236572	343.923096
1993.451416	337.498016
1992.666016	318.341400
1991.880615	296.008270
1991.094971	340.512024
1990.309326	311.818970
1989.523438	318.129700
1988.737549	314.896027
1987.951416	337.105316
1987.165161	340.228943
1986.378784	311.559692
1985.592285	352.830353
1984.805664	327.346649
1984.018921	343.180145
1983.232056	352.654236
1982.444946	298.594421
1981.657837	314.424774
1980.870605	346.127228
1980.083130	288.920502
1979.295654	371.407410
1978.507935	301.519897
1977.720093	342.723450
1976.932129	329.975067
1976.144165	348.953979
1975.355957	352.067657
1974.567627	339.324005
1973.779053	380.486908
1972.990479	393.104340
1972.201782	386.699524
1971.412964	377.127716
1970.623901	339.041534
1969.834839	405.514832
1969.045532	338.928589
1968.256226	348.373199
1967.466675	414.811707
1966.677002	345.091156
1965.887207	389.349884
1965.097290	370.295502
1964.307251	348.083038
1963.517090	379.663666
1962.726807	360.620392
1961.936401	395.351166
1961.145874	420.583527
1960.355103	429.998688
1959.564331	429.927002
1958.773315	398.248291
1957.982178	395.021729
1957.191040	423.392670
1956.399658	379.094391
1955.608154	426.410065
1954.816528	413.706696
1954.024780	394.692444
1953.232910	378.841553
1952.440918	435.595123
1951.648682	410.274780
1950.856445	413.361755
1950.063965	416.447693
1949.271484	403.760712
1948.478760	400.539459
1947.685913	432.005920
1946.893066	460.309021
1946.099976	438.166290
1945.306763	419.182648
1944.513428	374.995575
1943.719971	403.289246
1942.926270	403.221924
1942.132568	434.651062
1941.338745	406.236420
1940.544678	412.465790
1939.750610	399.804626
1938.956299	402.885406
1938.161865	427.994263
1937.367310	462.534210
1936.572632	421.559387
1935.777832	506.415863
1934.982910	424.563507
1934.187866	503.102295
1933.392700	462.148041
1932.597290	458.927490
1931.801880	430.565491
1931.006226	461.916412
1930.210571	483.831573
1929.414673	468.044525
1928.618652	442.840607
1927.822510	455.327362
1927.026245	436.413269
1926.229858	442.618591
1925.433350	495.901062
1924.636719	505.232422
1923.839844	480.047424
1923.042969	436.048615
1922.245850	461.067841
1921.448730	492.350647
1920.651367	498.539246
1919.853882	485.916107
1919.056274	476.431580
1918.258545	438.745178
1917.460693	429.271667
1916.662720	520.052368
1915.864624	526.230042
1915.066284	472.901428
1914.267944	447.772125
1913.469360	457.089447
1912.670776	488.315247
1911.871948	519.530518
1911.072998	516.314392
1910.273926	456.783569
1909.474731	469.219635
1908.675415	512.927612
1907.875977	497.206329
1907.076294	512.755920
1906.276611	522.048157
1905.476807	509.458710
1904.676758	503.123444
1903.876587	468.670044
1903.076294	462.343689
1902.275879	530.981506
1901.475342	546.507080
1900.674683	499.579926
1899.873901	521.349182
1899.072998	536.868530
1898.271851	521.174561
1897.470703	496.124969
1896.669312	489.802338
1895.867920	545.866516
1895.066284	576.962219
1894.264526	536.329041
1893.462646	545.592163
1892.660645	501.860687
1891.858521	489.310089
1891.056152	482.995850
1890.253784	495.377228
1889.451172	504.639343
1888.648560	545.043701
1887.845703	548.066345
1887.042725	485.704620
1886.239624	579.012268
1885.436401	504.216431
1884.633057	476.124573
1883.829590	500.935944
1883.025879	500.851929
1882.222168	516.319702
1881.418213	506.903595
1880.614258	513.037170
1879.810059	528.495117
1879.005737	463.132690
1878.201294	503.455780
1877.396729	478.513458
1876.592041	509.500244
1875.787231	552.901367
1874.982178	531.068909
1874.177124	546.505493
1873.371826	537.099915
1872.566406	530.801575
1871.760986	546.230347
1870.955322	521.314148
1870.149536	598.790161
1869.343506	527.343201
1868.537476	555.168091
1867.731323	586.084656
1866.924927	585.986267
1866.118530	573.488098
1865.311890	545.497009
1864.505127	551.603210
1863.698242	576.297546
1862.891235	532.830811
1862.084106	600.882629
1861.276855	576.007141
1860.469482	548.043762
1859.661865	541.760132
1858.854126	557.145325
1858.046387	557.051697
1857.238403	510.544922
1856.430298	569.239258
1855.622070	488.721130
1854.813721	559.769958
1854.005249	584.412903
1853.196533	599.772766
1852.387817	571.852051
1851.578857	559.393616
1850.769775	614.920532
1849.960693	556.116028
1849.151367	596.179688
1848.341919	537.398010
1847.532227	577.451294
1846.722534	543.392151
1845.912720	546.387695
1845.102661	580.246399
1844.292603	543.117981
1843.482300	580.051147
1842.671875	579.953552
1841.861328	545.928284
1841.050659	567.423157
1840.239868	551.911133
1839.428833	564.149414
1838.617798	604.123901
1837.806519	576.286499
1836.995117	591.595642
1836.183716	576.092529
1835.372070	597.556885
1834.560303	569.739197
1833.748291	563.484985
1832.936279	624.962830
1832.124146	578.685852
1831.311768	544.734802
1830.499390	563.105530
1829.686768	559.934143
1828.874023	553.687744
1828.061157	559.745544
1827.248169	584.251282
1826.434937	602.599792
1825.621704	553.314758
1824.808228	626.984436
1823.994751	580.784729
1823.181030	503.876434
1822.367188	568.301453
1821.553223	568.205627
1820.739136	614.172852
1819.924927	586.436218
1819.110474	577.127869
1818.296021	589.307861
1817.481323	626.034058
1816.666626	595.245728
1815.851685	585.942078
1815.036621	595.045044
1814.221436	607.211609
1813.406006	588.711914
1812.590576	588.612671
1811.774902	613.034790
1810.959229	603.737427
1810.143311	536.224487
1809.327271	579.024780
1808.511108	572.800903
1807.694824	572.704224
1806.878418	636.911133
1806.061768	575.572571
1805.245117	606.085815
1804.428223	621.286194
1803.611206	587.521240
1802.794067	550.708191
1801.976807	682.151123
1801.159424	645.334534
1800.341919	565.719116
1799.524170	632.886963
1798.706421	593.040283
1797.888428	565.432617
1797.070313	638.678223
1796.252075	601.906006
1795.433716	589.585022
1794.615234	641.408997
1793.796509	595.493530
1792.977783	543.486877
1792.158813	598.345154
1791.339844	549.407837
1790.520630	604.246521
1789.701294	674.322815
1788.881714	600.991638
1788.062134	600.890076
1787.242432	616.036987
1786.422485	573.244446
1785.602417	588.390869
1784.782349	637.061707
1783.962036	609.525391
1783.141479	630.752136
1782.320923	606.272766
1781.500244	578.755554
1780.679321	560.384277
1779.858398	612.055420
1779.037231	621.085571
1778.215942	617.936523
1777.394531	645.223572
1776.572998	639.028442
1775.751221	645.005371
1774.929443	620.560547
1774.107422	571.792419
1773.285278	614.268738
1772.463013	644.569031
1771.640625	604.941223
1770.818115	601.799500
1769.995483	677.669556
1769.172607	613.749268
1768.349731	613.645447
1767.526611	625.690918
1766.703369	692.395081
1765.880005	604.224976
1765.056519	631.444824
1764.232910	585.808777
1763.409058	600.883423
1762.585083	615.952942
1761.761108	664.388489
1760.936890	624.844055
1760.112549	630.803650
1759.288086	645.857849
1758.463379	694.255371
1757.638672	642.607910
1756.813721	663.713684
1755.988647	684.812256
1755.163574	672.577698
1754.338257	636.114380
1753.512695	648.121033
1752.687134	611.674133
1751.861328	672.122009
1751.035522	641.737488
1750.209473	690.053589
1749.383301	614.285706
1748.557007	710.998352
1747.730591	677.602722
1746.903931	635.144897
1746.077271	656.205078
1745.250366	698.422485
1744.423340	665.051514
1743.596313	625.646912
1742.768921	676.913757
1741.941528	707.013184
1741.114014	655.537842
1740.286255	721.875427
1739.458374	631.156372
1738.630493	658.223694
1737.802368	673.206360
1736.973999	618.761841
1736.145630	651.853088
1735.317139	657.777161
1734.488403	681.800049
1733.659546	669.619202
1732.830566	699.663452
1732.001465	651.300232
1731.172241	681.337402
1730.342896	639.022156
1729.513306	653.982422
1728.683594	620.725830
1727.853882	701.963928
1727.023926	725.942444
1726.193726	707.749023
1725.363525	716.662415
1724.533203	707.508667
1723.702637	707.388550
1722.871948	680.181519
1722.041138	631.919739
1721.210205	691.985046
1720.379150	652.761963
1719.547974	688.742371
1718.716553	721.703430
1717.885010	709.554504
1717.053467	709.433899
1716.221558	616.140869
1715.389648	742.248474
1714.557617	679.026917
1713.725342	729.980103
1712.893066	735.863037
1712.060547	717.719910
1711.227905	660.550354
1710.395142	720.477905
1709.562256	702.346558
1708.729126	720.232971
1707.895874	684.104980
1707.062622	740.987732
1706.229126	767.856689
1705.395508	701.749634
1704.561646	710.625549
1703.727783	746.479614
1702.893677	752.347473
1702.059570	785.185303
1701.225220	698.156677
1700.390747	719.009033
1699.556030	793.770691
1698.721313	751.707764
1697.886353	721.636414
1697.051392	736.482788
1696.216187	739.350769
1695.380859	697.325562
1694.545410	721.145325
1693.709717	825.735352
1692.874023	741.838806
1692.038086	762.648010
1691.202026	663.839355
1690.365845	744.449768
1689.529541	747.312256
1688.692993	783.049927
1687.856445	714.187256
1687.019653	800.709595
1686.182739	779.662720
1685.345703	669.021851
1684.508545	758.493774
1683.671143	707.607910
1682.833740	737.339111
1681.996094	767.060242
1681.158325	713.214600
1680.320435	769.782532
1679.482422	808.432190
1678.644287	805.311829
1677.805908	805.174561
1676.967407	757.331421
1676.128784	769.126831
1675.290039	801.782349
1674.451172	783.765076
1673.612183	795.549866
1672.772949	762.644348
1671.933594	768.471436
1671.094116	783.230713
1670.254517	756.299194
1669.414795	779.986572
1668.574829	815.572083
1667.734863	803.528809
1666.894653	770.661011
1666.054321	830.029907
1665.213867	803.117737
1664.373169	811.902710
1663.532471	787.976257
1662.691528	808.652710
1661.850464	784.734863
1661.009277	793.516907
1660.167969	796.352966
1659.326538	793.246094
1658.484863	804.992493
1657.643066	801.885132
1656.801147	775.023315
1655.959106	748.170654
1655.116943	843.032532
1654.274658	839.920654
1653.432129	783.396423
1652.589478	798.097229
1651.746704	833.557678
1650.903809	806.722290
1650.060791	824.376831
1649.217529	806.446777
1648.374146	776.665344
1647.530640	892.123413
1646.687012	829.740479
1645.843262	805.895874
1644.999390	853.155701
1644.155273	820.429688
1643.311035	799.560181
1642.466675	894.170044
1641.622192	814.088562
1640.777588	852.427002
1639.932739	778.298584
1639.087769	834.382813
1638.242798	896.364441
1637.397461	834.097595
1636.552124	783.681091
1635.706665	878.164124
1634.860962	872.101379
1634.015137	801.013794
1633.169189	821.563660
1632.323120	915.975464
1631.476929	839.008179
1630.630493	830.003418
1629.783936	856.440674
1628.937256	856.294128
1628.090454	829.577576
1627.243530	841.242554
1626.396484	782.074158
1625.549194	891.116882
1624.701782	820.159302
1623.854248	837.717163
1623.006592	843.472229
1622.158691	890.507019
1621.310791	869.717285
1620.462646	928.522156
1619.614380	825.211731
1618.765991	895.790771
1617.917358	819.036865
1617.068726	789.439880
1616.219849	836.427429
1615.370850	856.896790
1614.521729	892.079956
1613.672363	835.997742
1612.822998	897.660706
1611.973389	785.686401
1611.123657	885.584656
1610.273804	911.907654
1609.423828	823.517395
1608.573608	843.960754
1607.723389	855.576599
1606.872925	908.343201
1606.022339	893.491943
1605.171509	866.891296
1604.320679	872.618958
1603.469604	881.282227
1602.618408	884.068237
1601.767090	889.789917
1600.915649	918.998352
1600.064087	921.776367
1599.212280	930.423584
1598.360352	897.983582
1597.508301	871.422852
1596.656128	906.476379
1595.803833	900.454773
1594.951294	923.760925
1594.098633	911.874146
1593.245850	873.607361
1592.392944	864.664307
1591.539795	885.029907
1590.686646	940.549194
1589.833252	940.387817
1588.979736	902.148743
1588.126099	922.493774
1587.272217	816.925720
1586.418335	878.263977
1585.564209	898.602539
1584.709961	880.889038
1583.855591	886.589905
1583.000977	924.469666
1582.146362	950.636292
1581.291504	950.473022
1580.436523	929.841614
1579.581421	906.293762
1578.726074	987.982849
1577.870605	865.067139
1577.015137	961.345276
1576.159424	899.828247
1575.303467	896.752686
1574.447510	864.472900
1573.591309	937.324768
1572.734985	890.451538
1571.878540	931.164673
1571.021973	942.678711
1570.165161	945.434753
1569.308350	1006.539917
1568.451294	924.690796
1567.594116	959.529907
1566.736694	982.692993
1565.879272	979.608521
1565.021606	935.715149
1564.163818	950.126770
1563.305908	917.909424
1562.447876	949.800049
1561.589600	1013.722656
1560.731201	946.560913
1559.872681	984.254089
1559.014038	888.005493
1558.155273	954.805603
1557.296265	995.388245
1556.437134	928.287231
1555.577881	916.489563
1554.718506	977.420654
1553.859009	959.801514
1552.999268	921.832520
1552.139404	994.361145
1551.279419	921.515259
1550.419312	877.759338
1549.558960	976.411865
1548.698608	984.960266
1547.838013	964.455811
1546.977173	961.385254
1546.116333	984.451660
1545.255249	929.115906
1544.394165	998.627625
1543.532837	969.430786
1542.671265	977.969788
1541.809692	971.998413
1540.947876	992.137939
1540.085938	965.862610
1539.223877	1041.095947
1538.361694	977.127869
1537.499268	1061.030273
1536.636841	950.704773
1535.774170	979.520874
1534.911377	924.299744
1534.048340	970.492371
1533.185303	964.532166
1532.322021	932.509949
1531.458618	929.453735
1530.594971	1045.093384
1529.731323	992.812256
1528.867432	1044.733032
1528.003418	1056.126953
1527.139282	1003.870850
1526.275024	934.277771
1525.410522	963.036682
1524.545898	974.436584
1523.681152	988.723572
1522.816284	1014.567627
1521.951172	999.942566
1521.086060	973.764526
1520.220703	944.706421
1519.355225	1005.202209
1518.489502	1016.580811
1517.623779	1053.943115
1516.757813	984.472839
1515.891724	998.735535
1515.025513	1024.537354
1514.159058	1018.589539
1513.292480	1021.298767
1512.425781	1009.584351
1511.558960	1000.757996
1510.692017	1000.585205
1509.824829	1017.710693
1508.957520	1011.769897
1508.090088	1060.589844
1507.222534	1069.051270
1506.354736	1048.699341
1505.486938	990.907410
1504.618896	1036.817017
1503.750610	1010.721985
1502.882324	999.031189
1502.013794	1036.279785
1501.145142	1036.100830
1500.276367	1145.269043
1499.407471	1067.390503
1498.538330	1055.699707
1497.669067	1000.872009
1496.799683	1092.717407
1495.930176	1037.902100
1495.060547	1066.468506
1494.190674	1049.039673
1493.320679	1068.973389
1492.450562	1100.392578
1491.580200	1048.495728
1490.709717	990.872498
1489.839233	1059.619507
1488.968384	1111.116089
1488.097534	1182.689087
1487.226440	1050.459595
1486.355347	1136.366211
1485.483887	1055.834473
1484.612427	1067.126221
1483.740845	1158.721558
1482.869019	1144.182983
1481.997070	1135.383667
1481.124878	1109.387451
1480.252686	1097.730957
1479.380249	1143.391235
1478.507690	1077.295044
1477.635010	1125.807617
1476.762207	1185.760010
1475.889160	1082.463013
1475.015991	1165.307373
1474.142700	1193.732300
1473.269165	1187.801392
1472.395630	1158.978882
1471.521851	1224.585449
1470.647949	1250.119507
1469.773804	1221.301147
1468.899658	1263.984985
1468.025269	1258.047729
1467.150757	1323.579956
1466.276001	1314.776123
1465.401245	1351.698608
1464.526245	1357.178833
1463.651123	1385.510986
1462.775879	1390.983276
1461.900391	1425.011108
1461.024780	1384.790771
1460.149048	1381.696045
1459.273193	1387.165039
1458.397217	1401.193481
1457.520996	1420.923340
1456.644653	1375.032837
1455.768188	1369.089844
1454.891479	1440.146973
1454.014648	1471.261353
1453.137695	1456.752319
1452.260620	1436.547607
1451.383423	1416.349854
1450.505981	1376.213989
1449.628418	1430.102661
1448.750732	1432.702881
1447.872803	1478.019531
1446.994873	1449.289917
1446.116699	1486.047241
1445.238403	1426.016235
1444.359863	1533.911011
1443.481201	1539.335571
1442.602417	1510.619751
1441.723511	1700.930054
1440.844482	1717.698120
1439.965210	1663.375732
1439.085815	1745.530640
1438.206299	1802.075439
1437.326538	1696.612427
1436.446777	1738.938843
1435.566772	1630.682373
1434.686646	1599.154663
1433.806274	1570.477661
1432.925781	1533.292358
1432.045166	1513.153442
1431.164429	1407.868286
1430.283569	1382.082153
1429.402466	1432.916260
1428.521240	1415.645508
1427.639893	1449.437256
1426.758301	1383.957886
1425.876709	1355.362549
1424.994873	1372.136963
1424.112793	1437.092041
1423.230713	1348.988037
1422.348389	1345.920044
1421.465942	1297.524658
1420.583374	1396.437744
1419.700562	1350.882324
1418.817627	1452.583130
1417.934570	1494.796387
1417.051392	1545.486572
1416.167969	1630.119873
1415.284546	1527.971680
1414.400757	1601.262085
1413.516968	1513.297241
1412.633057	1566.767944
1411.748901	1413.804565
1410.864624	1371.151855
1409.980103	1379.393188
1409.095459	1314.152100
1408.210815	1299.795166
1407.325806	1347.596558
1406.440796	1378.433350
1405.555542	1293.468384
1404.670166	1318.656372
1403.784668	1360.774658
1402.899048	1337.956177
1402.013184	1385.700684
1401.127197	1360.064087
1400.241089	1309.045410
1399.354736	1303.176025
1398.468262	1280.387207
1397.581665	1361.936768
1396.694946	1353.241821
1395.807983	1372.737549
1394.920898	1302.041626
1394.033691	1377.894897
1393.146362	1352.299316
1392.258789	1290.094116
1391.371094	1315.216187
1390.483276	1345.960938
1389.595337	1402.032959
1388.707153	1368.010620
1387.818848	1336.814453
1386.930420	1336.581421
1386.041748	1389.802368
1385.152954	1350.179932
1384.264038	1347.132202
1383.375000	1358.144897
1382.485718	1352.285278
1381.596313	1298.642212
1380.706787	1253.448975
1379.817139	1331.908569
1378.927246	1382.246216
1378.037231	1401.667847
1377.147095	1356.488037
1376.256714	1353.443359
1375.366333	1350.399780
1374.475586	1369.813232
1373.584839	1355.541748
1372.693970	1386.171387
1371.802856	1321.402466
1370.911499	1374.467529
1370.020142	1360.204956
1369.128540	1413.244629
1368.236816	1354.123047
1367.344971	1390.326782
1366.453003	1325.624512
1365.560791	1305.778442
1364.668457	1319.558472
1363.775879	1333.333740
1362.883301	1341.502808
1361.990479	1240.463379
1361.097534	1282.241577
1360.204346	1312.808472
1359.311035	1343.364624
1358.417603	1295.560791
1357.524048	1267.357544
1356.630249	1311.891479
1355.736450	1255.727905
1354.842285	1266.693481
1353.948120	1235.718994
1353.053711	1350.108521
1352.159180	1249.260986
1351.264526	1198.745605
1350.369751	1198.536133
1349.474731	1212.293091
1348.579590	1228.838135
1347.684204	1214.661743
1346.788818	1214.449341
1345.893188	1205.862915
1344.997314	1186.116089
1344.101440	1171.956787
1343.205322	1230.339478
1342.309082	1199.440918
1341.412720	1174.130981
1340.516113	1162.771973
1339.619385	1168.144409
1338.722534	1220.901611
1337.825439	1148.227051
1336.928223	1145.239746
1336.030884	1131.109497
1335.133423	1116.984009
1334.235718	1066.658447
1333.337891	1108.239624
1332.439941	1116.397705
1331.541870	1066.098511
1330.643555	1118.790039
1329.745117	1049.029907
1328.846436	1059.974609
1327.947754	1068.133789
1327.048828	990.075684
1326.149780	1056.637329
1325.250488	1042.551636
1324.351074	1020.131836
1323.451538	1006.057373
1322.551880	925.299500
1321.651978	1041.821411
1320.751953	1055.527466
1319.851807	963.694397
1318.951416	1013.506714
1318.050903	960.580505
1317.150269	910.448547
1316.249512	963.019165
1315.348511	948.976501
1314.447388	937.713013
1313.546021	954.191528
1312.644653	965.117615
1311.743042	948.311401
1310.841309	959.234558
1309.939331	1025.591187
1309.037231	933.955811
1308.135010	983.668213
1307.232666	966.873230
1306.330078	986.093201
1305.427368	955.456421
1304.524536	944.213013
1303.621460	888.678101
1302.718262	949.417786
1301.814941	976.926208
1300.911499	979.521851
1300.007813	982.116516
1299.104004	973.646057
1298.199951	1048.145264
1297.295898	1070.081787
1296.391602	1299.354492
1295.487061	1417.982788
1294.582520	1721.731323
1293.677734	1876.164429
1292.772827	1740.465454
1291.867676	1419.749512
1290.962402	1212.374756
1290.057007	1007.833923
1289.151489	869.621765
1288.245728	872.229248
1287.339844	847.238464
1286.433838	808.460205
1285.527588	802.800659
1284.621216	783.351685
1283.714722	744.604919
1282.808105	744.474121
1281.901245	741.586548
1280.994263	752.481567
1280.087036	716.523193
1279.179810	732.929565
1278.272217	708.006775
1277.364624	732.671997
1276.456787	710.511841
1275.548828	748.935059
1274.640747	746.050476
1273.732544	737.661926
1272.824097	748.540161
1271.915405	745.657043
1271.006714	751.027954
1270.097778	706.887390
1269.188721	662.762268
1268.279541	745.132690
1267.370117	714.761719
1266.460571	670.658386
1265.550781	678.784790
1264.640991	703.394043
1263.730957	640.085876
1262.820679	697.653259
1261.910400	667.322510
1260.999878	686.424988
1260.089233	694.539795
1259.178345	636.778198
1258.267334	680.574097
1257.356201	718.867065
1256.444824	677.591248
1255.533447	619.873169
1254.621704	627.990967
1253.709961	616.913086
1252.797974	657.924744
1251.885864	608.473206
1250.973633	646.731506
1250.061157	641.137817
1249.148560	630.067200
1248.235840	616.261475
1247.322876	665.445190
1246.409790	648.900085
1245.496582	604.985901
1244.583130	621.301392
1243.669556	582.880493
1242.755859	621.082458
1241.841919	631.915283
1240.927856	640.009155
1240.013672	628.957947
1239.099365	590.569458
1238.184814	593.198975
1237.270142	675.088989
1236.355225	642.177917
1235.440186	590.153076
1234.525024	603.707581
1233.609741	617.257263
1232.694214	614.417664
1231.778564	627.960632
1230.862671	606.011597
1229.946777	559.506653
1229.030640	594.882568
1228.114258	597.505981
1227.197876	591.944885
1226.281128	610.932068
1225.364380	608.097351
1224.447388	599.810791
1223.530273	550.638184
1222.613037	659.559021
1221.695557	643.092834
1220.777954	632.081360
1219.860229	555.697571
1218.942261	596.452393
1218.024170	596.347107
1217.105957	604.409485
1216.187500	634.245728
1215.268921	598.752869
1214.350220	541.503540
1213.431274	571.334961
1212.512207	568.513916
1211.593018	546.656067
1210.673706	600.943481
1209.754150	581.806274
1208.834351	581.703491
1207.914551	535.398804
1206.994507	538.021484
1206.074219	605.846436
1205.153931	529.682434
1204.233398	499.714569
1203.312744	556.648804
1202.391846	586.414124
1201.470825	529.308044
1200.549683	559.067566
1199.628296	539.974670
1198.706787	550.731079
1197.785156	572.333496
1196.863281	512.568298
1195.941284	572.131104
1195.019165	547.630554
1194.096802	571.928772
1193.174438	533.886475
1192.251709	560.888062
1191.328979	528.279358
1190.406006	484.847534
1189.482788	519.967957
1188.559570	530.706665
1187.636108	533.320007
1186.712402	538.639038
1185.788696	535.837463
1184.864746	524.919556
1183.940552	546.468994
1183.016357	516.619324
1182.091919	484.075836
1181.167236	546.178833
1180.242554	516.344971
1179.317505	551.391235
1178.392456	516.162170
1177.467163	518.772705
1176.541748	532.188110
1175.616211	499.682068
1174.690430	577.908203
1173.764526	523.805298
1172.838501	550.708008
1171.912231	550.610474
1170.985840	531.622742
1170.059204	582.792725
1169.132446	585.387085
1168.205566	563.706116
1167.278564	539.336060
1166.351318	571.594910
1165.423828	541.840637
1164.496338	555.220825
1163.568604	538.953796
1162.640747	530.775330
1161.712646	552.231750
1160.784424	441.707062
1159.856079	487.407349
1158.927490	508.859955
1157.998779	473.774963
1157.069946	497.913757
1156.140869	495.134491
1155.211670	465.451508
1154.282349	473.438904
1153.352783	500.250092
1152.423096	513.606506
1151.493164	510.826813
1150.563232	508.048096
1149.632935	478.394257
1148.702637	494.432129
1147.772095	478.224457
1146.841431	486.198120
1145.910522	478.054688
1144.979492	453.802826
1144.048340	502.047699
1143.116943	459.010254
1142.185425	472.347717
1141.253784	485.680420
1140.321899	472.179962
1139.389893	466.731384
1138.457764	455.920929
1137.525391	485.335480
1136.592896	498.653961
1135.660278	479.802155
1134.727417	495.796814
1133.794434	589.491455
1132.861206	594.744751
1131.927856	701.781250
1130.994385	832.882385
1130.060669	945.193665
1129.126831	1052.110718
1128.192871	1076.013550
1127.258667	1051.736694
1126.324341	947.197510
1125.389893	810.592712
1124.455200	714.157654
1123.520386	676.590881
1122.585327	596.256653
1121.650146	531.990906
1120.714844	499.822144
1119.779297	494.388519
1118.843628	507.660065
1117.907837	467.498444
1116.971802	478.099060
1116.035645	437.956970
1115.099365	397.829132
1114.162842	496.530548
1113.226196	445.730347
1112.289307	392.279663
1111.352417	405.550323
1110.415161	456.162903
1109.477905	440.078827
1108.540405	413.333801
1107.602661	423.924988
1106.664917	410.520905
1105.726807	397.121613
1104.788696	423.698608
1103.850342	388.987305
1102.911865	391.581848
1101.973145	394.175446
1101.034302	412.745361
1100.095337	404.684631
1099.156128	463.174896
1098.216797	428.493530
1097.277344	388.502533
1096.337646	401.735840
1095.397827	433.584564
1094.457764	406.911774
1093.517700	398.862030
1092.577271	481.207733
1091.636841	406.694244
1090.696167	403.964081
1089.755249	441.092682
1088.814209	417.103638
1087.873047	422.341736
1086.931763	454.135590
1085.990234	406.259399
1085.048584	430.080292
1084.106689	403.460175
1083.164673	440.542389
1082.222412	445.770599
1081.280151	440.385254
1080.337524	419.087097
1079.394897	458.791962
1078.452026	395.074036
1077.509033	461.279297
1076.565796	439.992523
1075.622437	410.763092
1074.678955	378.894440
1073.735229	376.177673
1072.791382	407.894531
1071.847290	410.469910
1070.903076	420.987518
1069.958740	415.617859
1069.014160	442.011383
1068.069458	473.688110
1067.124512	500.061798
1066.179565	531.716797
1065.234253	618.903015
1064.288940	729.857788
1063.343384	769.386536
1062.397583	898.779053
1061.451660	866.902527
1060.505615	853.535034
1059.559448	729.206116
1058.613037	710.584778
1057.666382	641.789001
1056.719727	525.486389
1055.772827	425.066254
1054.825684	438.188751
1053.878418	451.306519
1052.931030	406.367126
1051.983398	364.082062
1051.035645	411.497467
1050.087769	411.423889
1049.139648	382.344849
1048.191406	353.276184
1047.242920	337.397491
1046.294312	332.066254
1045.345581	355.721649
1044.396606	360.927032
1043.447510	360.862457
1042.498291	331.828735
1041.548828	344.934814
1040.599121	405.423340
1039.649414	368.500732
1038.699341	352.644714
1037.749268	349.950409
1036.798950	331.472626
1035.848511	323.522491
1034.897827	318.204987
1033.947021	341.811951
1032.996094	325.977631
1032.044922	352.203094
1031.093506	341.628387
1030.142090	383.606232
1029.190430	320.490295
1028.238525	338.818390
1027.286499	346.635773
1026.334351	330.820343
1025.381958	309.760376
1024.429443	317.578735
1023.476807	307.025269
1022.523926	367.314819
1021.570923	317.408081
1020.617737	333.087616
1019.664368	304.182983
1018.710815	348.699036
1017.757080	332.908569
1016.803223	314.502899
1015.849121	298.724182
1014.894897	314.390137
1013.940491	335.289368
1012.985962	332.610260
1012.031189	322.076599
1011.076294	348.199219
1010.121216	335.048920
1009.165955	337.605957
1008.210510	308.762451
1007.254944	311.323242
1006.299133	308.651703
1005.343201	271.983185
1004.387085	298.081940
1003.430786	316.328430
1002.474365	311.044037
1001.517700	295.308167
1000.560913	339.674072
999.603943	342.225525
998.646790	342.164093
997.689514	302.930603
996.731995	305.487244
995.774353	294.990265
994.816528	331.478210
993.858521	289.665131
992.900330	328.750031
991.942017	294.778442
990.983459	315.591034
990.024780	331.180664
989.065918	299.834137
988.106873	299.780273
987.147705	325.789612
986.188293	343.972015
985.228760	330.883301
984.269043	317.799286
983.309143	296.906616
982.349060	322.893036
981.388794	320.231506
980.428406	304.555695
979.467834	294.090668
978.507019	314.854645
977.546082	306.993134
976.585022	340.753113
975.623718	309.483429
974.662292	283.425446
973.700623	319.771210
972.738831	330.110901
971.776855	306.662048
970.814758	267.631439
969.852417	311.747528
968.889954	314.288879
967.927246	324.620178
966.964417	303.789825
966.001404	306.331177
965.038208	332.231659
964.074890	306.220947
963.111328	316.544342
962.147644	321.675690
961.183777	331.992554
960.219727	334.526031
959.255493	339.651306
958.291077	324.036407
957.326538	331.753540
956.361755	352.424683
955.396851	336.815857
954.431763	303.079681
953.466492	297.845184
952.501038	295.202057
951.535461	297.737915
950.569641	300.272827
949.603699	305.394928
948.637573	315.690399
947.671265	323.395020
946.704773	294.883087
945.738098	307.761108
944.771240	362.006622
943.804260	338.673737
942.837097	328.273376
941.869751	315.292358
940.902222	328.155029
939.934509	322.928986
938.966614	317.704834
937.998535	312.482544
937.030334	304.680115
936.061951	327.859283
935.093323	289.083618
934.124573	309.676575
933.155640	325.101746
932.186584	327.622803
931.217285	348.197632
930.247864	322.347046
929.278198	314.553955
928.308411	322.230743
927.338440	340.214264
926.368286	334.999023
925.397949	288.562469
924.427429	368.365936
923.456787	332.242157
922.485901	337.332275
921.514893	324.398438
920.543701	326.914001
919.572327	365.459900
918.600769	347.381531
917.629028	360.182434
916.657104	306.099792
915.685059	334.334320
914.712769	359.987335
913.740356	295.650452
912.767761	352.146057
911.794983	300.683533
910.822021	357.157776
909.848877	323.696045
908.875549	362.165833
907.902039	351.828033
906.928406	344.061584
905.954590	310.626312
904.980530	333.670410
904.006348	320.778961
903.031982	318.155182
902.057434	325.793579
901.082703	353.947906
900.107849	325.675781
899.132751	312.797333
898.157532	330.684906
897.182068	333.188080
896.206482	363.878082
895.230713	304.884918
894.254761	350.938446
893.278625	348.313843
892.302307	286.794800
891.325806	343.067413
890.349182	325.087128
889.372314	322.469025
888.395325	342.881195
887.418091	330.027374
886.440735	306.946625
885.463196	365.711853
884.485474	342.632996
883.507568	347.683960
882.529480	324.616669
881.551270	332.224609
880.572815	350.050232
879.594238	316.776428
878.615417	360.140198
877.636475	347.306366
876.657349	301.284760
875.677979	311.441376
874.698486	367.536346
873.718811	377.677246
872.739014	362.300354
871.758972	374.989441
870.778748	385.123413
869.798401	390.153687
868.817810	356.938660
867.837097	356.873962
866.856140	372.101105
865.875061	293.040192
864.893799	331.202789
863.912354	315.859222
862.930725	354.003784
861.948914	336.115295
860.966919	328.416748
859.984741	320.720978
859.002441	328.297638
858.019897	386.761169
857.037231	368.882843
856.054321	343.380341
855.071289	317.887085
854.088074	355.968933
853.104614	348.277832
852.121033	350.756348
851.137268	335.445160
850.153320	373.496155
849.169189	370.888031
848.184937	368.280823
847.200439	373.292786
846.215759	408.770264
845.230896	342.695435
844.245911	299.486816
843.260681	324.808044
842.275330	393.250824
841.289795	314.543518
840.304016	385.499451
839.318115	337.250763
838.332031	329.583710
837.345764	347.267426
836.359314	329.463959
835.372681	324.336334
834.385864	326.810822
833.398865	354.613983
832.411743	308.964600
831.424377	286.120117
830.436829	324.041748
829.449158	346.762878
828.461243	379.598358
827.473206	346.636810
826.484924	392.109039
825.496521	361.686432
824.507935	366.678284
823.519104	376.725037
822.530151	374.128632
821.541016	343.731323
820.551697	323.453003
819.562195	341.079773
818.572510	386.486755
817.582642	335.904480
816.592590	328.267975
815.602356	348.405670
814.611938	345.818024
813.621399	363.421417
812.630615	330.552368
811.639648	322.923676
810.648560	340.521576
809.657227	335.415741
808.665771	363.090759
807.674072	360.503662
806.682251	320.109283
805.690186	337.691620
804.697998	325.031982
803.705566	360.241150
802.713013	322.394867
801.720276	317.299652
800.727356	337.384186
799.734253	362.496063
798.740906	337.261261
797.747437	372.429657
796.753784	389.973480
795.759949	347.138947
794.765930	347.075684
793.771729	357.070740
792.777344	354.491547
791.782776	372.022583
790.788025	344.309479
789.793091	369.374207
788.798035	306.499573
787.802734	386.822357
786.807251	374.194946
785.811584	384.170380
784.815796	386.610748
783.819763	348.890228
782.823547	356.355225
781.827148	283.526703
780.830627	343.682068
779.833862	348.635712
778.836975	333.525818
777.839844	320.928680
776.842529	348.444885
775.845093	343.368622
774.847412	370.870667
773.849609	323.199890
772.851563	385.765076
771.853394	393.208191
770.854980	343.055328
769.856445	340.489105
768.857666	317.898682
767.858765	350.375488
766.859680	400.356018
765.860352	367.759918
764.860901	382.700592
763.861206	332.613617
762.861389	385.061188
761.861389	372.491150
760.861145	359.925659
759.860779	354.861847
758.860168	327.312744
757.859436	339.743500
756.858521	347.174377
755.857361	339.619324
754.856079	354.537720
753.854614	366.954346
752.852905	366.887238
751.851074	344.361786
750.848999	366.753113
749.846802	404.102997
748.844421	414.005127
747.841797	396.474548
746.839050	349.033234
745.836121	334.013580
744.832947	346.413391
743.829651	411.134918
742.826111	393.620789
741.822449	396.039581
740.818604	423.361084
739.814514	400.874481
738.810303	358.480499
737.805847	363.392883
736.801270	375.769043
735.796448	368.236023
734.791504	380.606750
733.786316	363.126862
732.781006	355.600250
731.775452	355.535126
730.769775	390.271301
729.763855	420.024017
728.757751	360.309631
727.751526	387.572479
726.745056	407.373352
725.738403	345.210510
724.731628	409.707184
723.724609	387.288574
722.717407	379.771118
721.710083	397.073486
720.702515	379.631958
719.694763	369.639160
718.686829	349.728668
717.678711	379.423248
716.670410	421.504120
715.661987	399.116028
714.653320	423.828125
713.644470	406.403900
712.635437	322.090363
711.626221	386.437561
710.616821	393.796814
709.607178	425.915924
708.597412	396.128204
707.587463	356.449982
706.577332	339.060333
705.567017	371.165833
704.556458	388.415649
703.545776	375.976715
702.534912	356.123108
701.523804	331.331543
700.512573	393.074951
699.501099	388.059387
698.489502	395.401947
697.477661	333.559143
696.465698	377.964294
695.453491	370.485199
694.441101	404.989471
693.428589	382.694153
692.415833	367.812622
691.402893	385.021698
690.389771	357.807007
689.376465	365.142822
688.362976	379.876129
687.349304	365.008698
686.335449	384.668213
685.321411	428.974182
684.307190	384.526855
683.292725	369.669434
682.278137	344.961395
681.263367	401.559814
680.248352	374.391846
679.233215	430.964020
678.217834	462.893402
677.202332	401.264648
676.186584	371.655334
675.170654	374.047852
674.154541	366.597900
673.138306	373.910309
672.121826	368.922577
671.105164	371.313751
670.088318	385.996918
669.071289	395.758423
668.054016	403.058655
667.036621	388.241150
666.019043	370.972321
665.001282	370.904083
663.983276	343.821289
662.965149	341.302612
661.946777	407.523773
660.928223	368.176605
659.909546	382.833191
658.890625	358.226624
657.871521	421.942719
656.852234	372.810974
655.832764	370.290070
654.813110	370.221893
653.793274	367.702362
652.773254	362.732849
651.752991	392.071381
650.732605	379.749176
649.711975	357.633331
648.691223	396.752930
647.670227	389.333923
646.649048	421.088654
645.627747	389.190460
644.606201	406.249756
643.584473	381.706512
642.562561	462.366882
641.540466	437.822327
640.518127	408.395813
639.495667	418.100647
638.473022	432.691040
637.450134	425.278870
636.427063	452.080963
635.403870	381.143921
634.380432	366.416931
633.356812	395.657318
632.333008	415.119354
631.309021	393.069946
630.284851	397.879395
629.260498	375.841217
628.235901	441.653961
627.211182	417.176208
626.186218	414.660034
625.161133	407.267334
624.135803	387.685974
623.110291	407.117035
622.084595	397.292358
621.058716	399.655945
620.032654	416.637512
619.006409	440.920868
617.979919	414.048096
616.953308	443.193176
615.926453	389.548431
614.899414	413.818756
613.872253	382.103210
612.844849	476.932434
611.817261	474.411469
610.789490	425.675232
609.761475	406.140747
608.733337	374.455780
607.705017	403.559570
606.676453	410.776917
605.647705	420.421722
604.618774	362.030396
603.589722	364.392761
602.560425	422.617462
601.530884	434.681274
600.501221	424.889160
599.471375	412.673157
598.441284	439.294281
597.411011	393.107819
596.380615	434.279541
595.349976	405.090912
594.319153	395.315002
593.288147	441.313019
592.256897	446.080078
591.225525	385.400055
590.193970	392.599091
589.162170	438.563507
588.130188	414.256805
587.098022	428.712769
586.065674	443.163391
585.033142	430.975311
584.000427	406.687927
582.967468	416.293884
581.934387	428.316132
580.901062	428.236847
579.867554	425.738586
578.833862	493.378326
577.799988	447.343567
576.765930	469.019348
575.731628	466.515320
574.697205	413.260834
573.662537	454.261078
572.627747	420.355225
571.592712	432.354309
570.557434	386.390320
569.522034	410.463654
568.486450	420.043762
567.450623	451.342682
566.414673	412.648621
565.378479	448.762695
564.342102	436.618225
563.305542	455.831757
562.268799	434.044983
561.231812	462.895477
560.194702	474.861969
559.157349	510.924225
558.119812	513.239014
557.082092	486.643463
556.044189	493.779236
555.006042	459.972382
553.967773	438.216980
552.929260	440.543030
551.890625	421.206146
550.851746	464.444000
549.812683	435.485840
548.773376	476.299408
547.733948	471.400787
546.694275	485.741241
545.654419	461.608948
544.614441	487.964691
543.574158	497.487396
542.533752	475.769165
541.493164	473.278381
540.452332	482.798431
539.411316	533.141052
538.370178	477.816925
537.328735	494.532684
536.287170	448.837067
535.245422	527.945496
534.203430	491.857849
533.161255	491.766449
532.118896	472.487762
531.076355	434.032440
530.033630	484.299774
528.990723	443.459442
527.947571	491.309692
526.904236	460.067932
525.860718	486.335541
524.817017	510.198090
523.773132	546.026001
522.729004	569.868530
521.684692	564.974670
520.640198	552.902039
519.595520	495.365509
518.550659	471.347107
517.505615	483.220337
516.460327	509.439545
515.414856	475.866699
514.369202	466.214783
513.323364	504.374451
512.277283	475.601135
511.231079	499.407715
510.184631	535.150757
509.138000	494.444611
508.091187	441.812683
507.044159	491.872803
505.996948	475.070221
504.949554	501.237061
503.901947	525.007690
502.854126	472.418976
501.806152	515.270142
500.757965	534.254761
499.709564	498.385895
