#Wave		#Intensity
3200.600830	4.209852
3200.007080	16.839409
3199.413086	16.836864
3198.819092	0.000000
3198.224854	25.247662
3197.630615	33.658463
3197.036377	12.620015
3196.442139	12.618108
3195.847656	-8.410800
3195.252930	21.023821
3194.658447	4.204128
3194.063721	12.610478
3193.468750	-8.405714
3192.873779	21.011108
3192.278809	12.604758
3191.683838	12.602853
3191.088623	16.801262
3190.493164	25.198082
3189.897949	58.786633
3189.302490	25.190460
3188.706787	29.384424
3188.111328	29.379980
3187.515381	20.982525
3186.919678	25.175220
3186.323730	29.366648
3185.727783	25.167604
3185.131592	16.775864
3184.535400	8.386662
3183.939209	4.192697
3183.342773	0.000000
3182.746338	20.957140
3182.149902	29.335556
3181.553223	4.190159
3180.956543	20.947626
3180.359619	20.944456
3179.762695	25.129543
3179.165771	25.125738
3178.568604	29.308924
3177.971436	12.559066
3177.374268	29.300051
3176.776855	29.295614
3176.179443	16.737816
3175.581787	33.470566
3174.984131	12.549562
3174.386475	-4.182554
3173.788574	29.273441
3173.190674	37.631580
3172.592773	20.903269
3171.994629	33.440163
3171.396484	16.717548
3170.798340	20.893770
3170.199951	8.356242
3169.601563	0.000000
3169.002930	20.884277
3168.404297	4.176223
3167.805664	20.877949
3167.206787	4.174957
3166.607910	12.522974
3166.008789	12.521076
3165.409912	8.346119
3164.810547	20.862135
3164.211426	25.030769
3163.612061	0.000000
3163.012695	-4.170530
3162.413086	12.509695
3161.813477	8.338532
3161.213623	12.505902
3160.614014	4.168002
3160.013916	20.836851
3159.414063	20.833693
3158.813965	16.664427
3158.213867	20.827375
3157.613525	-12.494531
3157.013184	12.492636
3156.412598	20.817902
3155.812256	16.651796
3155.211426	29.136223
3154.610840	20.808432
3154.010010	8.322110
3153.409180	37.443817
3152.808105	20.798965
3152.207031	-4.159162
3151.605957	16.634125
3151.004639	29.105301
3150.403320	29.100885
3149.801758	-4.156639
3149.200195	24.936047
3148.598633	29.087641
3147.996826	29.083227
3147.395020	24.924696
3146.793213	0.000000
3146.191162	-4.152855
3145.589111	12.456676
3144.986816	0.000000
3144.384766	16.603859
3143.782227	24.902008
3143.179932	29.047932
3142.577393	20.745373
3141.974609	12.445333
3141.371826	16.591259
3140.769043	33.177479
3140.166260	4.146555
3139.563232	24.875555
3138.960205	8.290592
3138.356934	12.434000
3137.753662	33.152298
3137.150391	20.717039
3136.546875	12.428335
3135.943359	16.568598
3135.339600	33.132160
3134.735840	8.281782
3134.132080	24.841572
3133.528076	16.558531
3132.924072	33.112034
3132.320068	4.138375
3131.715820	16.550985
3131.111572	0.000000
3130.507080	24.818933
3129.902588	8.271721
3129.298096	12.405696
3128.693604	8.269207
3128.088867	24.803850
3127.483887	16.533386
3126.878906	20.663591
3126.273926	24.792542
3125.668945	16.525848
3125.063721	49.570007
3124.458252	37.171856
3123.853027	20.647890
3123.247559	28.902651
3122.641846	41.283226
3122.036133	37.149254
3121.430420	20.635336
3120.824707	24.758636
3120.218750	24.754871
3119.612549	-4.125185
3119.006592	16.498228
3118.400391	12.371789
3117.793945	32.986420
3117.187500	20.613377
3116.581055	-4.122048
3115.974609	16.485683
3115.367920	28.845558
3114.760986	16.480667
3114.154297	8.239080
3113.547363	16.475653
3112.940186	12.354859
3112.333008	4.117660
3111.725830	0.000000
3111.118408	20.582033
3110.510986	20.578901
3109.903564	16.460615
3109.295898	24.687164
3108.688232	8.227802
3108.080566	20.566374
3107.472656	37.013840
3106.864746	32.896179
3106.256592	24.668379
3105.648438	12.332312
3105.040039	24.660868
3104.431885	24.657112
3103.823486	24.653358
3103.214844	28.757872
3102.606201	36.968777
3101.997559	-4.107016
3101.388672	28.744734
3100.779785	12.317295
3100.170898	20.525700
3099.561768	12.313543
3098.952637	8.207778
3098.343262	8.206528
3097.733887	41.026390
3097.124512	57.428192
3096.514893	16.405556
3095.905273	20.503819
3095.295410	24.600834
3094.685791	40.995144
3094.075684	12.296668
3093.465820	24.589588
3092.855713	40.976402
3092.245361	28.679110
3091.635254	20.481956
3091.024658	-4.095767
3090.414307	28.665997
3089.803711	-8.189036
3089.193115	24.563364
3088.582275	28.652889
3087.971436	8.185291
3087.360596	28.644152
3086.749512	0.000000
3086.138428	16.363096
3085.527100	12.270451
3084.915771	20.447632
3084.304443	12.266707
3083.692871	24.529675
3083.081299	24.525932
3082.469482	16.348127
3081.857910	-4.086409
3081.245850	20.428926
3080.634033	36.766457
3080.021973	20.422693
3079.409668	4.083915
3078.797607	28.583046
3078.185059	12.248008
3077.572754	16.328186
3076.960205	28.569963
3076.347656	36.727203
3075.734863	28.561245
3075.122070	28.556885
3074.509033	36.710392
3073.895996	-4.078310
3073.282959	28.543810
3072.669922	36.693584
3072.056641	40.764423
3071.443115	40.758202
3070.829834	16.300791
3070.216064	4.074575
3069.602539	0.000000
3068.988770	12.219995
3068.375000	32.581676
3067.760986	36.648788
3067.146973	20.357328
3066.532715	28.495907
3065.918701	24.421331
3065.304199	0.000000
3064.689941	16.275915
3064.075439	32.546856
3063.460693	40.677357
3062.846191	-4.067114
3062.231445	20.332464
3061.616455	4.065872
3061.001465	40.652504
3060.386475	40.646294
3059.771240	24.384048
3059.156006	16.253548
3058.540771	20.313831
3057.925293	24.372871
3057.309814	20.307623
3056.694092	20.304518
3056.078369	24.361698
3055.462646	8.119325
3054.846680	40.590416
3054.230713	16.233685
3053.614502	12.173402
3052.998291	8.114361
3052.382080	20.282801
3051.765625	32.447517
3051.149170	0.000000
3050.532715	24.328197
3049.916016	32.432636
3049.299316	28.374216
3048.682373	32.422714
3048.065430	24.313318
3047.448486	16.206400
3046.831299	12.152940
3046.214111	16.201441
3045.596680	16.198963
3044.979248	28.343849
3044.361816	8.097004
3043.744141	44.526707
3043.126465	8.094526
3042.508545	40.466438
3041.890869	28.322170
3041.272705	36.408649
3040.654785	40.447861
3040.036621	24.265003
3039.418213	36.391933
3038.799805	44.472221
3038.181396	32.338482
3037.562988	28.291842
3036.944336	4.041073
3036.325439	24.242725
3035.706543	32.318687
3035.087646	16.156870
3034.468750	12.115796
3033.849609	40.379803
3033.230469	60.560432
3032.611084	24.220463
3031.991699	12.108377
3031.372070	40.355076
3030.752441	8.069778
3030.132813	24.205629
3029.513184	20.168268
3028.893066	20.165178
3028.273193	20.162088
3027.653076	16.127201
3027.032959	28.218277
3026.412598	24.183390
3025.792480	8.059895
3025.171875	8.058660
3024.551270	32.229698
3023.930664	20.140474
3023.310059	48.329731
3022.689209	40.268604
3022.068115	28.183702
3021.447266	32.205009
3020.826172	40.250092
3020.204834	44.268314
3019.583496	36.213978
3018.962158	24.138950
3018.340576	28.157791
3017.718994	24.131550
3017.097412	8.042617
3016.475586	20.103458
3015.853760	40.200752
3015.231689	24.116753
3014.609619	28.131897
3013.987549	28.127583
3013.365234	40.176098
3012.742920	12.050981
3012.120361	28.114641
3011.497803	16.063046
3010.875244	16.060581
3010.252441	24.087177
3009.629639	24.083481
3009.006836	32.106380
3008.383789	44.139500
3007.760498	24.072397
3007.137451	28.080154
3006.514160	12.032505
3005.890625	28.071537
3005.267090	28.067228
3004.643555	24.053932
3004.019775	44.092110
3003.395996	36.069824
3002.772217	12.021429
3002.148193	24.039167
3001.524170	28.041389
3000.899902	44.058277
3000.275635	48.056194
2999.651367	12.012204
2999.026855	32.027626
2998.402344	20.014193
2997.777588	48.026688
2997.152832	44.017704
2996.528076	28.006964
2995.903076	36.003422
2995.278076	15.999063
2994.653076	47.989819
2994.027832	39.985374
2993.402344	23.987539
2992.777100	39.973091
2992.151367	31.973558
2991.525879	27.972567
2990.900146	35.959202
2990.274414	51.933090
2989.648438	27.959675
2989.022461	15.974502
2988.396240	43.923130
2987.770264	63.878368
2987.143799	19.958923
2986.517578	27.938196
2985.891113	19.952787
2985.264404	55.859219
2984.637695	27.925316
2984.010986	27.921022
2983.384033	31.904835
2982.757080	47.849895
2982.130127	35.881905
2981.502930	7.972530
2980.875732	11.956957
2980.248291	39.850395
2979.620850	39.844265
2978.993408	43.821953
2978.365723	47.798412
2977.738037	23.895531
2977.110107	19.909880
2976.482178	31.850908
2975.854248	19.903755
2975.226074	35.821247
2974.597900	55.713367
2973.969482	31.831312
2973.341309	55.696228
2972.712646	27.843828
2972.083984	27.839544
2971.455322	43.741123
2970.826660	51.686100
2970.197754	59.628632
2969.568604	31.797043
2968.939697	43.714203
2968.310547	35.760662
2967.681152	55.619133
2967.051758	3.972184
2966.422363	59.573586
2965.792725	39.709610
2965.163086	35.733147
2964.533203	19.848692
2963.903564	11.907381
2963.273438	15.874063
2962.643311	47.614857
2962.013184	55.542114
2961.383057	59.500240
2960.752686	23.796431
2960.122314	27.758226
2959.491699	19.824251
2958.861084	35.678158
2958.230225	39.636288
2957.599609	27.741129
2956.968506	23.774446
2956.337646	51.503365
2955.706299	55.456619
2955.075195	47.526920
2954.443848	59.399494
2953.812500	51.471630
2953.180908	39.587460
2952.549316	35.623222
2951.917725	51.447838
2951.285889	51.439907
2950.653809	43.519367
2950.021973	55.379749
2949.389893	47.461037
2948.757568	71.180580
2948.125244	39.538673
2947.492920	51.392349
2946.860352	67.195015
2946.227783	63.232620
2945.595215	47.417152
2944.962402	63.213120
2944.329590	63.203373
2943.696533	39.496017
2943.063477	118.469772
2942.430420	82.916054
2941.797119	110.537682
2941.163574	82.890472
2940.530273	90.770805
2939.896729	86.810852
2939.262939	130.196182
2938.629150	98.618256
2937.995361	114.379532
2937.361328	149.853500
2936.727295	106.458427
2936.093262	102.499702
2935.458984	130.075699
2934.824707	145.819946
2934.190186	141.856964
2933.555664	153.654663
2932.921143	137.873932
2932.286377	145.729935
2931.651367	153.583527
2931.016602	125.997795
2930.381592	177.157043
2929.746338	165.321045
2929.111084	184.973572
2928.475830	161.335007
2927.840332	157.375702
2927.204834	137.682480
2926.569336	165.193451
2925.933594	161.235367
2925.297607	153.346542
2924.661865	192.636414
2924.025879	165.091431
2923.389648	176.856354
2922.753418	184.688095
2922.117188	176.801712
2921.480713	192.487671
2920.844238	184.602509
2920.207764	188.501099
2919.571045	184.545471
2918.934082	157.035706
2918.297363	192.339020
2917.660156	172.685898
2917.023193	200.127716
2916.385986	184.402924
2915.748779	192.220139
2915.111328	164.734650
2914.473877	168.630844
2913.836182	145.078522
2913.198486	199.942184
2912.560791	215.590591
2911.922852	184.203476
2911.284912	215.523926
2910.646729	168.474472
2910.008545	195.870255
2909.370361	160.588776
2908.731934	187.977295
2908.093506	207.526169
2907.455078	199.664108
2906.816406	203.547607
2906.177490	246.567612
2905.538574	258.268951
2904.899658	230.841080
2904.260498	258.189056
2903.621338	262.060486
2902.982178	285.484406
2902.342773	238.518539
2901.703369	246.300705
2901.063721	277.534027
2900.424072	250.132813
2899.784424	269.632721
2899.144531	261.776733
2898.504639	289.081818
2897.864502	257.789825
2897.224365	320.234741
2896.583984	285.042908
2895.943848	296.711060
2895.303223	288.858124
2894.662842	273.201874
2894.021973	296.573273
2893.381348	308.232361
2892.740479	296.481415
2892.099609	315.937866
2891.458496	354.887573
2890.817383	335.336304
2890.176025	350.878998
2889.534668	339.130493
2888.893311	300.103485
2888.251709	385.787567
2887.610107	331.180450
2886.968262	397.354980
2886.326416	370.028168
2885.684570	366.076416
2885.042480	385.488831
2884.400391	443.827454
2883.758057	463.221802
2883.115723	521.530273
2882.473389	501.992371
2881.830811	571.949158
2881.188232	676.896118
2880.545410	692.349609
2879.902588	793.356384
2879.259766	859.336182
2878.616699	917.519897
2877.973633	851.295410
2877.330322	890.029297
2876.687012	792.741638
2876.043457	652.744812
2875.399902	625.450134
2874.756348	539.901184
2874.112549	559.235352
2873.468750	489.255035
2872.824707	539.650024
2872.180664	461.930878
2871.536621	395.879333
2870.892334	465.668152
2870.248047	403.516479
2869.603760	415.091980
2868.958984	391.755005
2868.314453	430.475830
2867.669678	395.511017
2867.024902	407.080505
2866.379883	410.893707
2865.734863	422.457214
2865.089844	352.638916
2864.444580	399.078796
2863.799316	399.016846
2863.153809	379.588196
2862.508301	371.783783
2861.862549	402.703247
2861.216797	383.282990
2860.571045	418.062012
2859.925049	429.608124
2859.279053	472.108612
2858.632813	429.474731
2857.986572	402.328278
2857.340332	460.284912
2856.693848	522.090881
2856.047363	487.209137
2855.400635	490.999603
2854.753906	521.847656
2854.107178	525.631531
2853.460205	490.770874
2852.813232	537.059448
2852.166016	521.523499
2851.518799	598.693237
2850.871338	579.290527
2850.223877	563.755188
2849.576416	637.021606
2848.928711	652.363159
2848.281006	667.699951
2847.633301	764.069580
2846.985352	679.067444
2846.337158	756.116638
2845.688965	794.570557
2845.040771	790.590515
2844.392578	763.476013
2843.743896	794.200073
2843.095459	821.059814
2842.446777	755.411743
2841.798096	724.466003
2841.149170	728.206299
2840.500244	685.717285
2839.851074	650.944946
2839.202148	646.992554
2838.552734	589.133728
2837.903320	492.793427
2837.253906	496.566132
2836.604492	465.698883
2835.954834	442.537537
2835.304932	373.212738
2834.655029	407.777283
2834.005127	338.479401
2833.354980	261.511566
2832.704834	273.006378
2832.054688	257.585663
2831.404297	242.169708
2830.753906	253.662125
2830.103271	180.610077
2829.452637	172.897629
2828.801758	165.187576
2828.150879	169.002838
2827.500000	157.455414
2826.848877	180.469574
2826.197754	142.049667
2825.546387	118.996063
2824.895020	130.491501
2824.243408	99.772079
2823.591797	115.103706
2822.940186	99.741013
2822.288330	99.725479
2821.636475	107.379951
2820.984619	88.191223
2820.332520	84.343681
2819.680176	76.664131
2819.028076	103.480461
2818.375488	88.136292
2817.723145	80.459732
2817.070557	49.800648
2816.417725	76.604446
2815.764893	95.740639
2815.112061	57.435432
2814.458984	61.254917
2813.805908	72.728882
2813.152832	72.717545
2812.499512	80.359505
2811.845947	76.520935
2811.192383	76.509003
2810.538818	84.146790
2809.885010	68.836639
2809.231201	65.002251
2808.577393	42.053722
2807.923340	61.159519
2807.269287	53.506233
2806.614990	57.319172
2805.960693	80.234329
2805.306152	53.481213
2804.651611	61.111855
2803.997070	49.645638
2803.342285	53.456196
2802.687500	38.177044
2802.032471	64.890854
2801.377441	61.064217
2800.722412	80.134285
2800.067139	72.491135
2799.411621	72.479828
2798.756348	34.327194
2798.100586	80.084290
2797.445068	26.690599
2796.789307	64.809914
2796.133301	38.117531
2795.477539	45.733898
2794.821289	53.347889
2794.165283	57.149532
2793.509033	41.903118
2792.852539	49.514137
2792.196045	34.273666
2791.539551	41.883499
2790.882813	45.683956
2790.226074	53.289631
2789.569092	53.281311
2788.912109	57.078205
2788.255127	30.436956
2787.597900	26.628180
2786.940430	53.248043
2786.283203	41.831215
2785.625488	34.220192
2784.968018	49.421448
2784.310303	68.419014
2783.652588	87.410637
2782.994629	64.597771
2782.336426	41.792030
2781.678467	60.778912
2781.020264	53.173237
2780.361816	45.569942
2779.703369	75.938034
2779.044922	60.740936
2778.386230	45.548584
2777.727539	45.541466
2777.068604	41.739819
2776.409668	45.527233
2775.750732	30.346745
2775.091553	49.305756
2774.432373	49.298046
2773.772949	56.873470
2773.113525	68.237495
2772.453857	75.807587
2771.794189	41.687656
2771.134521	56.837914
2770.474609	56.829029
2769.814697	26.516066
2769.154541	30.299337
2768.494385	34.081425
2767.833984	37.862328
2767.173584	45.427689
2766.513184	26.495340
2765.852539	34.060108
2765.191895	45.406376
2764.531006	41.615997
2763.870117	64.305573
2763.209229	41.602978
2762.548096	60.503956
2761.886719	68.056305
2761.225586	41.583454
2760.563965	56.695839
2759.902588	41.570442
2759.240967	56.678097
2758.579102	45.335381
2757.917236	45.328285
2757.255371	56.651489
2756.593262	83.075844
2755.931152	37.755836
2755.269043	60.399879
2754.606689	41.518417
2753.944092	79.250023
2753.281494	83.010834
2752.618896	49.044178
2751.956055	71.668732
2751.293213	64.114609
2750.630371	56.562855
2749.967285	60.324265
2749.303955	56.545139
2748.640625	60.305370
2747.977295	48.990437
2747.313721	71.590195
2746.650146	71.578979
2745.986572	56.500870
2745.322754	60.258152
2744.658691	71.545341
2743.994873	71.534134
2743.330566	56.465466
2742.666504	94.094368
2742.002197	48.921402
2741.337646	56.438927
2740.673096	56.430080
2740.008545	71.466896
2739.343750	71.455696
2738.678955	67.684258
2738.013916	52.635063
2737.348877	90.217392
2736.683594	71.410904
2736.018311	82.673347
2735.353027	75.145805
2734.687500	75.134018
2734.021973	56.341679
2733.356201	86.377029
2732.690430	63.833878
2732.024658	63.823864
2731.358643	116.366440
2730.692383	78.816513
2730.026367	112.577362
2729.359863	120.063683
2728.693604	105.039246
2728.027100	116.275200
2727.360352	112.506737
2726.693604	127.487625
2726.026855	101.224289
2725.359863	93.711487
2724.692871	127.427628
2724.025635	131.154907
2723.358398	127.387634
2722.691162	127.367638
2722.023682	108.620056
2721.355957	97.368210
2720.688477	138.540695
2720.020508	146.006470
2719.352783	112.295036
2718.684814	130.990311
2718.016602	130.969742
2717.348389	130.949173
2716.680176	119.706161
2716.011719	86.025291
2715.343262	127.147850
2714.674561	108.432610
2714.005859	138.323318
2713.337158	142.039474
2712.668213	115.856110
2711.999023	134.521439
2711.329834	104.611359
2710.660645	104.594925
2709.991455	134.458054
2709.321777	119.499496
2708.652344	74.675446
2707.982666	111.995575
2707.312988	85.849777
2706.643066	97.032326
2705.972900	85.822800
2705.302979	100.732674
2704.632813	104.447090
2703.962402	100.701004
2703.291992	82.039772
2702.621582	82.026878
2701.950928	70.830261
2701.280273	59.637157
2700.609375	78.261459
2699.938477	81.975304
2699.267334	115.492493
2698.596191	85.674507
2697.925049	81.936638
2697.253662	85.647560
2696.582031	107.973419
2695.910645	70.730080
2695.239014	93.051254
2694.567139	55.821972
2693.895264	63.254948
2693.223145	63.244999
2692.551270	85.553299
2691.878906	55.786854
2691.206543	55.778076
2690.534180	48.333393
2689.861816	78.064735
2689.189209	74.335663
2688.516357	78.040161
2687.843506	63.165428
2687.170654	81.730629
2686.497559	52.002213
2685.824463	74.277184
2685.151123	81.692039
2684.477783	81.679184
2683.804199	59.393688
2683.130615	63.095860
2682.457031	77.929672
2681.783203	66.786346
2681.109375	40.807449
2680.435303	37.091839
2679.761230	66.754799
2679.086914	59.328251
2678.412598	85.270927
2677.738281	88.964348
2677.063721	63.006485
2676.389160	62.996559
2675.714355	55.576443
2675.039551	59.272202
2674.364502	77.782509
2673.689453	66.660217
2673.014404	74.055237
2672.339111	88.852280
2671.663574	59.225517
2670.988037	66.618210
2670.312500	44.405140
2669.636719	36.998451
2668.960938	51.789665
2668.285156	59.178860
2667.609131	55.471436
2666.932861	51.765179
2666.256592	62.847809
2665.580322	59.141552
2664.903809	55.436462
2664.227295	81.293991
2663.550781	66.502777
2662.874023	77.574341
2662.197021	62.788372
2661.520020	66.471321
2660.843018	62.768566
2660.165771	66.450356
2659.488525	51.675457
2658.811035	59.048347
2658.133545	73.798790
2657.455811	77.476501
2656.778076	73.775505
2656.100342	103.269409
2655.422363	55.314171
2654.744385	40.557323
2654.066162	62.669609
2653.387939	66.345581
2652.709473	44.223408
2652.031006	88.432861
2651.352539	58.945934
2650.673828	55.253090
2649.994873	69.976196
2649.316162	99.424164
2648.636963	58.908722
2647.958008	55.218208
2647.278809	33.125694
2646.599365	47.840668
2645.919922	51.512585
2645.240479	69.898895
2644.560791	51.496315
2643.880859	69.876816
2643.201172	77.220078
2642.520996	69.854744
2641.841064	44.111820
2641.160889	40.429447
2640.480469	58.797176
2639.800049	36.742432
2639.119629	58.778603
2638.438965	44.076984
2637.758301	51.415024
2637.077393	62.422665
2636.396484	55.070118
2635.715332	25.695326
2635.034180	55.052711
2634.353027	55.044010
2633.671631	62.373352
2632.989990	51.358170
2632.308350	36.678608
2631.626709	47.674652
2630.944824	29.333609
2630.262939	51.325699
2629.581055	80.641922
2628.898926	73.299248
2628.216553	47.636974
2627.534180	69.612259
2626.851807	62.274803
2626.169189	73.252892
2625.486572	54.930977
2624.803711	84.214172
2624.120850	73.218132
2623.437988	65.885895
2622.754883	51.236481
2622.071533	54.887543
2621.388184	36.585907
2620.704834	36.580116
2620.021240	43.889194
2619.337646	54.852814
2618.653809	80.438057
2617.969971	69.458237
2617.286133	69.447243
2616.602051	69.436256
2615.917725	65.771301
2615.233398	69.414276
2614.549072	51.139263
2613.864502	69.392296
2613.179932	113.201088
2612.495117	91.276749
2611.810303	62.058361
2611.125488	43.798965
2610.440430	40.142693
2609.755127	58.380127
2609.069824	51.074520
2608.384521	69.304443
2607.698975	58.352390
2607.013428	94.807617
2606.327637	61.979774
2605.641846	65.615250
2604.956055	65.604851
2604.270020	40.085503
2603.583740	47.366272
2602.897461	65.573677
2602.211182	80.132904
2601.524658	50.985584
2600.838135	54.618755
2600.151367	43.688080
2599.464600	69.161827
2598.777832	69.150864
2598.090820	32.750481
2597.403564	58.213848
2596.716309	58.204620
2596.029053	58.195393
2595.341553	65.459435
2594.654053	47.268764
2593.966309	36.354824
2593.278564	69.063210
2592.590820	61.783600
2591.902832	54.506294
2591.214600	47.231297
2590.526367	50.856407
2589.838135	79.904533
2589.149658	43.577377
2588.461182	68.986572
2587.772461	105.278587
2587.083740	68.964684
2586.394775	54.437164
2585.705811	54.428528
2585.016846	76.187851
2584.327637	68.920921
2583.638184	36.268414
2582.948975	68.899048
2582.259277	50.759666
2581.569824	61.626953
2580.879883	47.119015
2580.190186	72.479286
2579.500244	28.987110
2578.810059	72.456276
2578.119873	68.822533
2577.429688	39.838299
2576.739258	47.074150
2576.048584	72.410271
2575.358154	54.299076
2574.667236	68.767906
2573.976563	57.900620
2573.285645	47.036781
2572.594482	25.323475
2571.903320	36.170647
2571.212158	43.397881
2570.520752	47.006905
2569.829102	54.230118
2569.137451	54.221500
2568.445801	43.370312
2567.753906	50.590656
2567.062012	43.356529
2566.370117	39.737167
2565.677979	61.402229
2564.985596	32.501896
2564.293213	25.275234
2563.600830	61.372955
2562.908203	46.924801
2562.215332	54.135395
2561.522705	43.301430
2560.829590	68.549698
2560.136719	36.073051
2559.443604	39.674049
2558.750244	50.486214
2558.056885	36.055847
2557.363525	57.680183
2556.669922	54.066570
2555.976074	61.265701
2555.282227	57.652668
2554.588379	32.424465
2553.894287	68.440765
2553.200195	25.211006
2552.505859	54.014992
2551.811523	28.803413
2551.117188	57.597660
2550.422607	35.992809
2549.727783	39.585793
2549.032959	57.570171
2548.338135	50.365883
2547.643066	50.357868
2546.947998	43.157017
2546.252686	57.533531
2545.557373	46.738552
2544.861816	53.920513
2544.166260	50.317802
2543.470703	50.309792
2542.774902	53.894764
2542.078857	50.293774
2541.382813	46.693924
2540.686768	43.095222
2539.990479	50.269753
2539.294189	43.081497
2538.597656	32.305977
2537.901123	43.067776
2537.204346	43.060913
2536.507568	46.641895
2535.810791	46.634464
2535.113770	21.520170
2534.416504	53.791855
2533.719238	50.197731
2533.021973	64.529655
2532.324463	75.272606
2531.626953	39.422222
2530.929199	39.415943
2530.231445	46.575054
2529.533447	57.314007
2528.835449	46.560207
2528.137451	39.390820
2527.439209	35.804127
2526.740723	35.798420
2526.042236	78.743973
2525.343750	57.259212
2524.645020	42.937561
2523.946289	57.240955
2523.247314	39.346882
2522.548340	28.611349
2521.849121	50.061878
2521.149902	25.026947
2520.450684	35.747078
2519.751221	39.315514
2519.051514	42.882813
2518.351807	60.740959
2517.652100	32.151848
2516.952148	60.721581
2516.252197	35.712879
2515.552002	60.702206
2514.851807	46.411926
2514.151367	35.695786
2513.450928	46.397118
2512.750244	49.958153
2512.049561	24.975090
2511.348877	53.509506
2510.647949	17.833654
2509.946777	42.793941
2509.245605	53.483887
2508.544434	35.650230
2507.843018	64.160172
2507.141602	42.766621
2506.439941	64.139687
2505.738281	64.129448
2505.036377	46.308315
2504.334473	49.862530
2503.632568	46.293526
2502.930420	46.286133
2502.228027	46.278740
2501.525635	56.949348
2500.823242	32.028893
2500.120605	53.372959
2499.417969	71.152573
2498.715088	53.355907
2498.012207	49.790890
2497.309082	67.562553
2496.605957	46.219624
2495.902588	74.650536
2495.199219	67.530167
2494.495605	67.519379
2493.791992	56.849335
2493.088379	42.630184
2492.384521	46.175320
2491.680664	46.167938
2490.976563	49.711369
2490.272461	49.703423
2489.568115	53.245152
2488.863770	63.883965
2488.159180	63.873753
2487.454590	42.575691
2486.749756	49.663696
2486.044922	60.296272
2485.339844	56.740356
2484.634766	49.639870
2483.929688	60.267345
2483.224365	63.802277
2482.519043	77.968086
2481.813477	53.151554
2481.107666	46.057308
2480.402100	31.880728
2479.696045	42.500835
2478.990234	53.117542
2478.284180	42.487236
2477.577881	31.860327
2476.871582	60.170986
2476.165039	38.927937
2475.458496	42.460041
2474.751953	56.604328
2474.045166	60.132469
2473.338379	56.586205
2472.631348	42.432861
2471.924072	60.103592
2471.217041	56.559029
2470.509521	7.068747
2469.802246	49.473305
2469.094482	24.732691
2468.386963	42.392109
2467.679199	38.853207
2466.971191	45.910072
2466.263184	42.371742
2465.554932	98.851563
2464.846680	74.126793
2464.138428	35.292816
2463.429932	38.815880
2462.721436	42.337811
2462.012695	42.331028
2461.303955	52.905304
2460.594971	70.529106
2459.885986	42.310680
2459.176758	45.829224
2458.467529	45.821880
2457.758057	52.862923
2457.048584	52.854450
2456.338867	52.845978
2455.629150	24.657503
2454.919434	59.872906
2454.209473	52.820564
2453.499512	49.291290
2452.789307	63.364353
2452.078857	59.834515
2451.368408	38.710243
2450.657959	31.666937
2449.947266	42.215809
2449.236572	38.691620
2448.525879	49.235981
2447.814697	45.711792
2447.103760	63.283092
2446.392578	63.272942
2445.681152	87.864990
2444.969727	59.738605
2444.258301	49.188602
2443.546631	73.771065
2442.834717	42.148129
2442.122803	49.164928
2441.410889	45.645821
2440.698730	52.659801
2439.986572	52.651348
2439.274170	66.681000
2438.561768	52.634445
2437.849121	52.625996
2437.136475	73.664566
2436.423584	52.609097
2435.710693	38.573811
2434.997803	66.616791
2434.284424	52.583759
2433.571289	38.555229
2432.857910	24.531206
2432.144287	28.031160
2431.430908	59.556648
2430.717041	66.552620
2430.003174	56.035313
2429.289307	63.029598
2428.575195	59.518391
2427.861084	59.508827
2427.146729	55.999310
2426.432373	38.493340
2425.717773	76.974304
2425.003174	73.463669
2424.288330	80.447273
2423.573486	59.451473
2422.858643	59.441917
2422.143555	48.944298
2421.428223	55.927349
2420.712891	48.928562
2419.997559	48.920696
2419.281982	52.406605
2418.566162	59.384605
2417.850586	101.286858
2417.134521	87.302216
2416.418457	87.288177
2415.702393	69.819313
2414.986084	41.884850
2414.269775	48.857800
2413.553223	31.403532
2412.836670	38.375923
2412.120117	62.786861
2411.403076	38.363575
2410.686279	34.870365
2409.969238	66.243034
2409.251953	48.802803
2408.534668	76.677780
2407.817383	55.756683
2407.099854	52.263481
2406.382080	41.804054
2405.664307	73.145325
2404.946533	59.203350
2404.228516	62.675808
2403.510498	66.147148
2402.792236	24.366079
2402.073975	59.165234
2401.355469	45.236717
2400.636963	59.146183
2399.918213	38.264896
2399.199463	73.039406
2398.480469	52.162601
2397.761475	45.200306
2397.042480	73.004120
2396.323242	55.613228
2395.603760	52.129005
2394.884277	59.070023
2394.164795	59.060505
2393.445068	69.471756
2392.725098	48.622391
2392.005127	69.449371
2391.285156	48.606724
2390.564941	79.841034
2389.844727	65.945007
2389.124268	45.112999
2388.403809	55.514740
2387.683105	48.567570
2386.962402	52.028294
2386.241455	45.083920
2385.520508	62.413826
2384.799316	48.536259
2384.078125	55.461067
2383.356689	58.917885
2382.635254	51.977985
2381.913818	72.757446
2381.192139	72.745712
2380.470215	69.270462
2379.748291	55.407429
2379.026367	38.086464
2378.304199	41.542168
2377.581787	51.919334
2376.859375	62.293148
2376.136963	65.743271
2375.414307	34.596138
2374.691650	41.508671
2373.968750	76.086945
2373.245850	62.242912
2372.522705	44.945961
2371.799316	34.568237
2371.076172	38.018921
2370.352783	72.569862
2369.629150	55.282402
2368.905518	55.273476
2368.181641	62.172623
2367.457764	72.523018
2366.733643	51.793793
2366.009521	69.047241
2365.285400	48.325264
2364.561035	51.768707
2363.836426	62.112415
2363.111816	51.751987
2362.387207	41.394905
2361.662354	48.286255
2360.937256	51.726917
2360.212158	72.405983
2359.487061	79.288986
2358.761719	55.148643
2358.036377	44.801033
2357.310791	65.467857
2356.584961	37.896317
2355.859375	65.446701
2355.133301	51.660099
2354.407471	65.425552
2353.681152	51.643402
2352.955078	68.846741
2352.228516	61.952049
2351.502197	65.383263
2350.775635	51.610020
2350.048828	58.481899
2349.322021	55.032890
2348.594971	68.779991
2347.867920	55.015095
2347.140869	55.006199
2346.413330	48.122643
2345.686035	51.551636
2344.958496	58.415737
2344.230713	54.970627
2343.502930	75.572388
2342.775146	65.256500
2342.047119	65.245949
2341.319092	51.501625
2340.590820	27.463089
2339.862305	48.052631
2339.133789	65.203735
2338.405273	48.037083
2337.676514	44.598644
2336.947754	51.451645
2336.218750	58.302425
2335.489746	48.005993
2334.760498	65.140442
2334.031250	71.985680
2333.301758	58.264690
2332.572266	54.828476
2331.842529	47.967152
2331.112793	51.385056
2330.382813	44.526505
2329.652832	61.642097
2328.922607	51.360096
2328.192383	41.081425
2327.462158	51.343464
2326.731689	71.869209
2326.000977	51.326832
2325.270264	78.688400
2324.539307	51.310207
2323.808350	41.041515
2323.077393	64.971870
2322.346191	51.285275
2321.614746	54.695427
2320.883301	58.104477
2320.151855	51.260345
2319.420166	51.252041
2318.688232	44.411236
2317.956299	71.729599
2317.224365	61.472549
2316.492188	92.193878
2315.760010	78.522797
2315.027588	47.788734
2314.295166	51.193916
2313.562500	64.835114
2312.829590	78.471886
2312.096924	64.814087
2311.363770	54.571438
2310.630615	71.613396
2309.897461	68.192169
2309.164063	64.772057
2308.430664	78.395561
2307.697021	74.974899
2306.963379	51.110954
2306.229492	51.102665
2305.495605	37.469208
2304.761719	47.680344
2304.027344	51.077797
2303.293213	68.092674
2302.558838	68.081627
2301.824219	64.667053
2301.089600	57.850601
2300.354736	91.865456
2299.619873	71.439316
2298.885010	57.822437
2298.149658	64.614586
2297.414551	54.403450
2296.679199	71.392937
2295.943604	67.982231
2295.208008	57.775517
2294.472412	64.562149
2293.736572	50.961842
2293.000488	64.541183
2292.264404	67.927055
2291.528320	67.916023
2290.791992	67.904991
2290.055420	47.525776
2289.318848	81.459518
2288.582275	44.116741
2287.845459	57.681747
2287.108398	81.419830
2286.371582	61.054947
2285.634277	78.001984
2284.896973	67.816788
2284.159668	54.244614
2283.422119	67.794746
2282.684570	61.005356
2281.946777	77.938622
2281.208740	71.149780
2280.470703	71.138214
2279.732666	71.126648
2278.994385	67.728653
2278.256104	98.190582
2277.517578	57.550636
2276.779053	84.619530
2276.040283	81.221535
2275.301514	67.673607
2274.562500	91.344513
2273.823486	67.651596
2273.084229	74.404655
2272.344971	94.681427
2271.605469	81.142311
2270.865967	50.705692
2270.126221	74.356255
2269.386475	57.447754
2268.646484	67.574600
2267.906494	50.672703
2267.166260	54.042088
2266.426025	70.918694
2265.685547	57.401031
2264.945068	74.271599
2264.204346	67.508644
2263.463623	74.247421
2262.722656	53.989334
2261.981689	70.849464
2261.240723	74.211166
2260.499268	64.081024
2259.758057	37.093502
2259.016602	77.546509
2258.274902	84.275955
2257.533203	77.521255
2256.791260	80.878571
2256.049316	67.387833
2255.307129	67.376854
2254.564941	80.839058
2253.822754	67.354904
2253.080322	37.039165
2252.337646	84.166206
2251.594971	57.223694
2250.852051	94.235435
2250.109131	80.760071
2249.366211	70.653542
2248.623047	63.914219
2247.879639	60.540443
2247.136230	67.256195
2246.392578	57.158447
2245.648926	77.319412
2244.905273	57.139816
2244.161377	67.212357
2243.417236	40.320839
2242.673096	63.830917
2241.928955	73.897430
2241.184570	80.602234
2240.439941	87.304848
2239.695313	90.647942
2238.950439	83.919594
2238.205566	63.768490
2237.460693	87.247910
2236.715576	73.813110
2235.970215	80.510262
2235.224854	87.205215
2234.479492	63.716492
2233.733887	67.059052
2232.988037	73.752922
2232.242188	56.981594
2231.496338	70.377541
2230.750244	83.769112
2230.003906	83.755440
2229.257568	73.692757
2228.511230	70.331604
2227.764648	77.017281
2227.017822	77.004707
2226.270996	80.339622
2225.523926	97.061195
2224.776855	60.235043
2224.029785	73.608589
2223.282471	63.560673
2222.534912	90.308311
2221.787354	86.949356
2221.039795	73.560516
2220.291992	60.176048
2219.543945	76.879059
2218.795898	76.866501
2218.047852	90.219841
2217.299561	66.818596
2216.551025	76.828835
2215.802490	80.156120
2215.053955	63.446556
2214.305176	83.468674
2213.556152	100.146034
2212.807129	33.376556
2212.058105	53.393764
2211.308838	70.067863
2210.559326	83.400482
2209.809814	80.051376
2209.060303	83.373222
2208.310547	46.681370
2207.560547	73.344444
2206.810547	66.665871
2206.060303	73.320465
2205.310059	83.305084
2204.559814	89.954781
2203.809326	83.277840
2203.058594	83.264221
2202.307861	73.260529
2201.557129	79.907501
2200.806152	63.249760
2200.054932	89.866531
2199.303711	89.851830
2198.552246	79.855225
2197.800781	73.188644
2197.049316	73.176674
2196.297607	79.816032
2195.545654	73.152725
2194.793701	83.114494
2194.041504	89.748962
2193.289307	79.763794
2192.537109	76.427788
2191.784668	86.382492
2191.031982	109.621368
2190.279297	83.032890
2189.526367	89.660843
2188.773438	69.724792
2188.020508	76.352745
2187.267090	96.255089
2186.513916	106.195114
2185.760498	96.223564
2185.006836	92.890289
2184.253174	92.875076
2183.499268	96.176285
2182.745361	86.212891
2181.991211	82.883430
2181.237061	96.129028
2180.482666	102.741776
2179.728271	72.901573
2178.973877	92.768616
2178.218994	96.066040
2177.464355	109.298607
2176.709229	109.280693
2175.954346	112.573776
2175.198975	105.934425
2174.443848	99.297241
2173.688232	86.043503
2172.932861	86.029396
2172.177002	66.165611
2171.421387	82.693451
2170.665283	92.601479
2169.909424	92.586296
2169.153076	59.510002
2168.396729	89.250359
2167.640381	89.235725
2166.883789	85.916603
2166.127197	95.814339
2165.370361	75.978218
2164.613525	75.965752
2163.856445	82.557922
2163.099365	92.449707
2162.342041	82.530838
2161.584473	75.915909
2160.826904	82.503754
2160.069336	79.190605
2159.311523	62.682274
2158.553711	49.477882
2157.795654	72.555649
2157.037354	42.866756
2156.279053	82.422539
2155.520752	89.001724
2154.762207	98.874573
2154.003662	105.448891
2153.244873	92.252632
2152.485840	98.825874
2151.726807	95.515991
2150.967773	82.327850
2150.208252	88.899475
2149.448975	62.548615
2148.689453	69.121323
2147.929688	55.946167
2147.169922	95.421898
2146.410156	72.377136
2145.650146	52.629269
2144.889893	98.663666
2144.129639	82.206207
2143.369141	52.603329
2142.608643	72.317696
2141.847900	75.592438
2141.087158	72.293922
2140.326416	68.996490
2139.565186	78.840172
2138.804199	85.396149
2138.042725	68.962471
2137.281494	62.384361
2136.519775	82.071190
2135.758301	78.775391
2134.996338	118.143654
2134.234619	82.030708
2133.472412	75.455841
2132.710449	85.283882
2131.947998	52.473759
2131.185547	78.697693
2130.423096	75.406212
2129.660400	95.061760
2128.897705	111.433380
2128.134766	75.369003
2127.371826	91.738472
2126.608643	94.999214
2125.845215	55.680031
2125.081787	78.594170
2124.318359	94.952324
2123.554688	88.389336
2122.790771	72.009087
2122.026855	94.905449
2121.262939	65.441261
2120.498779	81.788109
2119.734375	68.690697
2118.969971	114.465652
2118.205322	58.858356
2117.440674	55.579292
2116.676025	62.107803
2115.911133	84.975632
2115.145996	88.229393
2114.380859	94.749298
2113.615479	101.267044
2112.850098	75.121239
2112.084473	114.296097
2111.318848	91.421814
2110.552979	65.290543
2109.787109	91.391693
2109.020996	101.166992
2108.254883	88.098663
2107.488525	81.559395
2106.722168	68.498604
2105.955566	61.964714
2105.188965	81.519081
2104.422119	48.903385
2103.655029	110.829399
2102.887939	91.256226
2102.120850	127.085930
2101.353516	94.484215
2100.585938	78.180939
2099.818359	94.453056
2099.050781	81.411621
2098.282959	97.677841
2097.514893	74.873993
2096.746826	48.822811
2095.978760	94.375198
2095.210449	94.359634
2094.441895	91.090820
2093.673340	100.833916
2092.904541	104.069450
2092.135742	117.058815
2091.366699	97.532921
2090.597656	78.013458
2089.828369	87.750664
2089.059082	87.736183
2088.289551	77.974846
2087.520020	74.713562
2086.750244	64.957588
2085.980469	84.430923
2085.210449	81.170181
2084.440186	84.403053
2083.670166	94.126320
2082.899658	77.884789
2082.129150	103.829231
2081.358643	94.079704
2080.587891	103.794945
2079.816895	74.590294
2079.045898	61.607895
2078.274902	61.597717
2077.503662	81.036240
2076.732178	116.672913
2075.960693	74.528717
2075.188965	74.516403
2074.417236	84.222015
2073.645264	74.491783
2072.873291	90.670662
2072.101074	80.942566
2071.328857	87.403526
2070.556396	93.862350
2069.783936	93.846832
2069.011230	77.653511
2068.238525	103.520897
2067.465576	84.096825
2066.692627	93.784798
2065.919434	87.302444
2065.145996	106.685349
2064.372559	74.344154
2063.599121	67.868225
2062.825439	93.707283
2062.051514	93.691788
2061.277588	80.755424
2060.503662	87.201431
2059.729248	71.041267
2058.955078	90.401199
2058.180664	77.473930
2057.406006	67.778473
2056.631348	90.356346
2055.856445	119.379700
2055.081543	145.167496
2054.306396	125.791016
2053.531250	90.296547
2052.755859	93.505951
2051.980225	87.042854
2051.204590	90.251724
2050.428955	87.014038
2049.653076	106.332893
2048.877197	106.315285
2048.101074	77.307404
2047.324707	106.280083
2046.548340	86.942032
2045.771851	83.708099
2044.995239	74.037209
2044.218506	64.369514
2043.441528	86.884460
2042.664551	96.522293
2041.887329	102.940063
2041.110107	102.923012
2040.332642	61.100414
2039.555176	80.381958
2038.777466	80.368645
2037.999634	102.854820
2037.221802	80.342010
2036.443726	118.886475
2035.665527	86.740616
2034.887207	102.786659
2034.108765	86.711868
2033.330200	96.330551
2032.551514	80.262154
2031.772705	86.668755
2030.993774	80.235542
2030.214600	99.475578
2029.435425	96.250725
2028.656128	109.066071
2027.876587	99.426102
2027.097046	105.823135
2026.317261	70.537056
2025.537476	102.582344
2024.757446	86.539497
2023.977295	92.934410
2023.197021	112.143608
2022.416626	112.125008
2021.636230	118.512489
2020.855591	76.860207
2020.074707	115.271187
2019.293823	102.446274
2018.512817	67.219208
2017.731689	89.610741
2016.950439	83.196159
2016.168945	105.577606
2015.387451	124.752823
2014.605713	121.533852
2013.823975	143.897781
2013.041992	102.310318
2012.260010	95.900002
2011.477783	79.903397
2010.695435	131.019806
2009.912964	83.071938
2009.130371	99.030861
2008.347656	99.014412
2007.564819	86.224037
2006.781860	95.788574
2005.998779	111.734772
2005.215576	108.524323
2004.432129	98.932205
2003.648682	73.389122
2002.864990	95.709030
2002.081299	86.123817
2001.297363	95.677231
2000.513428	95.661331
1999.729248	124.339058
1998.944946	98.817184
1998.160522	98.800758
1997.375977	121.090477
1996.591309	101.953979
1995.806519	101.937035
1995.021606	92.365074
1994.236572	82.796303
1993.451416	120.989853
1992.666016	111.419495
1991.880615	111.400970
1991.094971	105.017731
1990.309326	98.636612
1989.523438	111.345390
1988.737549	98.603806
1987.951416	120.849068
1987.165161	111.289841
1986.378784	104.912964
1985.592285	89.002251
1984.805664	123.946793
1984.018921	117.570976
1983.232056	114.374352
1982.444946	85.766487
1981.657837	104.808258
1980.870605	136.545609
1980.083130	101.598427
1979.295654	117.453621
1978.507935	101.564598
1977.720093	98.374329
1976.932129	117.394974
1976.144165	114.203117
1975.355957	95.153419
1974.567627	104.651329
1973.779053	110.975349
1972.990479	104.616478
1972.201782	114.108055
1971.412964	117.258194
1970.623901	126.744499
1969.834839	107.714874
1969.045532	145.707611
1968.256226	110.846024
1967.466675	132.993057
1966.677002	98.145187
1965.887207	113.956070
1965.097290	123.431831
1964.307251	123.411263
1963.517090	142.373886
1962.726807	104.390106
1961.936401	120.186760
1961.145874	98.030746
1960.355103	104.337914
1959.564331	97.998062
1958.773315	116.945930
1957.982178	132.727295
1957.191040	129.545517
1956.399658	142.160400
1955.608154	132.660919
1954.816528	104.216187
1954.024780	135.774200
1953.232910	116.809479
1952.440918	101.007561
1951.648682	97.834755
1950.856445	107.284729
1950.063965	129.351181
1949.271484	94.631416
1948.478760	148.231140
1947.685913	113.519798
1946.893066	94.584045
1946.099976	104.025085
1945.306763	97.704231
1944.513428	122.897705
1943.719971	138.630676
1942.926270	132.307190
1942.132568	141.734039
1941.338745	148.008621
1940.544678	116.497971
1939.750610	116.478516
1938.956299	107.016441
1938.161865	116.439621
1937.367310	116.420174
1936.572632	128.984589
1935.777832	154.126572
1934.982910	144.666077
1934.187866	119.486801
1933.392700	128.898422
1932.597290	135.163574
1931.801880	113.141296
1931.006226	116.264679
1930.210571	128.812302
1929.414673	119.367065
1928.618652	106.784264
1927.822510	138.168304
1927.026245	135.005539
1926.229858	128.704697
1925.433350	128.683182
1924.636719	97.280777
1923.839844	131.777725
1923.042969	112.933456
1922.245850	141.143219
1921.448730	122.303665
1920.651367	119.147743
1919.853882	137.937469
1919.056274	115.973480
1918.258545	125.355759
1917.460693	134.734909
1916.662720	119.048134
1915.864624	109.631256
1915.066284	147.194489
1914.267944	109.594574
1913.469360	134.622238
1912.670776	106.427681
1911.871948	106.409866
1911.072998	131.425491
1910.273926	125.146187
1909.474731	134.509628
1908.675415	165.763184
1907.875977	159.481277
1907.076294	143.821777
1906.276611	106.285255
1905.476807	125.020546
1904.676758	121.874619
1903.876587	128.103149
1903.076294	124.957748
1902.275879	131.183670
1901.475342	143.653290
1900.674683	146.751602
1899.873901	149.848877
1899.072998	143.581116
1898.271851	140.436264
1897.470703	174.735840
1896.669312	168.467041
1895.867920	137.246445
1895.066284	159.054459
1894.264526	134.082260
1893.462646	140.295135
1892.660645	171.443085
1891.858521	155.831238
1891.056152	174.501724
1890.253784	155.778992
1889.451172	152.637833
1888.648560	127.695953
1887.845703	174.384750
1887.042725	140.107101
1886.239624	149.422516
1885.436401	158.734802
1884.633057	127.588936
1883.829590	146.235962
1883.025879	124.435257
1882.222168	139.966187
1881.418213	146.162384
1880.614258	130.591278
1879.810059	136.786972
1879.005737	170.955017
1878.201294	149.172073
1877.396729	149.147049
1876.592041	124.268349
1875.787231	177.052689
1874.982178	167.705978
1874.177124	142.836670
1873.371826	142.812698
1872.566406	121.060005
1871.760986	142.764755
1870.955322	139.637726
1870.149536	120.999046
1869.343506	142.692856
1868.537476	133.364410
1867.731323	158.149826
1866.924927	151.922363
1866.118530	133.297226
1865.311890	130.175430
1864.505127	133.252457
1863.698242	133.230072
1862.891235	130.109848
1862.084106	142.477325
1861.276855	139.356567
1860.469482	173.392365
1859.661865	133.118195
1858.854126	139.286331
1858.046387	133.073471
1857.238403	151.616379
1856.430298	170.153046
1855.622070	160.844925
1854.813721	167.003189
1854.005249	139.145935
1853.196533	142.214157
1852.387817	163.827896
1851.578857	157.619202
1850.769775	154.502655
1849.960693	160.655731
1849.151367	166.806747
1848.341919	163.690201
1847.532227	151.310776
1846.722534	182.159882
1845.912720	194.476974
1845.102661	169.752930
1844.292603	157.380783
1843.482300	138.842041
1842.671875	141.903534
1841.861328	175.807404
1841.050659	157.274887
1840.239868	147.998520
1839.428833	169.553101
1838.617798	191.100418
1837.806519	184.904755
1836.995117	166.386276
1836.183716	154.035431
1835.372070	175.570831
1834.560303	163.222580
1833.748291	126.245270
1832.936279	160.088989
1832.124146	172.374496
1831.311768	175.423065
1830.499390	138.468582
1829.686768	166.134308
1828.874023	153.802155
1828.061157	181.455978
1827.248169	144.525330
1826.434937	181.394836
1825.621704	159.846481
1824.808228	135.231934
1823.994751	165.938492
1823.181030	187.417465
1822.367188	187.385880
1821.553223	175.068771
1820.739136	205.747910
1819.924927	196.502182
1819.110474	178.050095
1818.296021	162.673523
1817.481323	187.196457
1816.666626	156.482117
1815.851685	153.387985
1815.036621	174.832809
1814.221436	190.136963
1813.406006	174.773865
1812.590576	180.875763
1811.774902	177.780090
1810.959229	159.362167
1810.143311	202.233246
1809.327271	150.117538
1808.511108	171.533951
1807.694824	165.379837
1806.878418	159.227783
1806.061768	168.385590
1805.245117	205.089645
1804.428223	171.389282
1803.611206	143.820313
1802.794067	165.212463
1801.976807	162.125610
1801.159424	189.624359
1800.341919	174.302643
1799.524170	165.100937
1798.706421	180.357620
1797.888428	207.834702
1797.070313	189.464340
1796.252075	186.376999
1795.433716	192.455215
1794.615234	167.988083
1793.796509	174.067337
1792.977783	155.718155
1792.158813	189.272446
1791.339844	170.926880
1790.520630	155.639252
1789.701294	183.074066
1788.881714	164.738831
1788.062134	167.761185
1787.242432	170.782532
1786.422485	179.901184
1785.602417	158.530182
1784.782349	179.840393
1783.962036	185.905243
1783.141479	185.873825
1782.320923	164.516220
1781.500244	134.027603
1780.679321	194.916275
1779.858398	140.072388
1779.037231	146.137772
1778.215942	140.025024
1777.394531	170.436417
1776.572998	213.009491
1775.751221	182.548691
1774.929443	158.182098
1774.107422	176.404037
1773.285278	155.087662
1772.463013	176.344360
1771.640625	170.234711
1770.818115	170.205917
1769.995483	179.293747
1769.172607	173.186676
1768.349731	167.081680
1767.526611	164.016068
1766.703369	151.841019
1765.880005	203.432541
1765.056519	182.147552
1764.232910	200.328384
1763.409058	169.946823
1762.585083	179.020813
1761.761108	182.024231
1760.936890	175.926971
1760.112549	166.799042
1759.288086	191.028381
1758.463379	175.837616
1757.638672	200.057190
1756.813721	190.931335
1755.988647	166.657852
1755.163574	181.777756
1754.338257	199.921661
1753.512695	227.145218
1752.687134	205.910110
1751.861328	190.737335
1751.035522	169.515564
1750.209473	211.858551
1749.383301	199.718491
1748.557007	172.454926
1747.730591	184.525742
1746.903931	181.469955
1746.077271	214.703049
1745.250366	181.408447
1744.423340	199.515457
1743.596313	208.548965
1742.768921	190.381989
1741.941528	205.456833
1741.114014	256.777496
1740.286255	211.427948
1739.458374	190.252884
1738.630493	178.143112
1737.802368	172.075165
1736.973999	169.027634
1736.145630	172.016785
1735.317139	181.039581
1734.488403	174.975235
1733.659546	190.027069
1732.830566	226.184311
1732.001465	253.283432
1731.172241	211.033707
1730.342896	201.955124
1729.513306	198.907104
1728.683594	195.860107
1727.853882	207.877731
1727.023926	207.842438
1726.193726	174.678482
1725.363525	186.693573
1724.533203	195.693893
1723.702637	213.721649
1722.871948	216.695007
1722.041138	231.703903
1721.210205	186.535095
1720.379150	192.519653
1719.547974	192.486954
1718.716553	195.461349
1717.885010	195.428146
1717.053467	204.413162
1716.221558	198.367310
1715.389648	213.358871
1714.557617	216.327164
1713.725342	207.278290
1712.893066	207.243073
1712.060547	177.177719
1711.227905	210.175125
1710.395142	207.137405
1709.562256	174.085892
1708.729126	177.057266
1707.895874	177.027176
1707.062622	185.996918
1706.229126	203.961929
1705.395508	188.932602
1704.561646	176.906784
1703.727783	218.847443
1702.893677	182.841415
1702.059570	215.776108
1701.225220	206.750259
1700.390747	230.682053
1699.556030	200.689194
1698.721313	221.619019
1697.886353	215.592621
1697.051392	227.531265
1696.216187	218.512573
1695.380859	251.396332
1694.545410	212.453598
1693.709717	227.376404
1692.874023	218.363846
1692.038086	203.372787
1691.202026	200.347900
1690.365845	233.201141
1689.529541	194.301193
1688.692993	221.166763
1687.856445	218.140869
1687.019653	227.066895
1686.182739	209.104935
1685.345703	253.869904
1684.508545	223.964691
1683.671143	185.112610
1682.833740	229.858749
1681.996094	205.942230
1681.158325	217.843796
1680.320435	223.773987
1679.482422	235.668427
1678.644287	253.524094
1677.805908	217.695343
1676.967407	184.860428
1676.128784	226.564484
1675.290039	232.487076
1674.451172	235.427536
1673.612183	250.285339
1672.772949	235.347275
1671.933594	217.435715
1671.094116	187.618011
1670.254517	238.204468
1669.414795	226.255646
1668.574829	235.146683
1667.734863	244.034683
1666.894653	238.042007
1666.054321	205.276215
1665.213867	226.062759
1664.373169	237.920212
1663.532471	234.906128
1662.691528	240.812027
1661.850464	225.908524
1661.009277	228.841949
1660.167969	252.574631
1659.326538	222.821930
1658.484863	255.458878
1657.643066	243.535492
1656.801147	246.463364
1655.959106	240.483429
1655.116943	246.379227
1654.274658	222.593811
1653.432129	234.425446
1652.589478	222.517807
1651.746704	210.614227
1650.903809	237.271271
1650.060791	225.369217
1649.217529	252.014618
1648.374146	228.256607
1647.530640	234.145340
1646.687012	263.738922
1645.843262	231.102493
1644.999390	210.326584
1644.155273	239.909058
1643.311035	210.254715
1642.466675	210.218781
1641.622192	230.905121
1640.777588	183.508591
1639.932739	248.582047
1639.087769	201.198700
1638.242798	195.247696
1637.397461	233.665634
1636.552124	236.582977
1635.706665	209.931488
1634.860962	263.108551
1634.015137	209.859695
1633.169189	242.331726
1632.323120	251.154556
1631.476929	224.523315
1630.630493	236.299911
1629.783936	245.119217
1628.937256	265.746460
1628.090454	253.892059
1627.243530	265.655548
1626.396484	244.951523
1625.549194	241.958893
1624.701782	247.817917
1623.854248	238.926376
1623.006592	250.682297
1622.158691	238.844604
1621.310791	235.855530
1620.462646	250.553604
1619.614380	229.880417
1618.765991	265.201233
1617.917358	253.371109
1617.068726	259.219086
1616.219849	265.065033
1615.370850	276.798279
1614.521729	264.974243
1613.672363	259.041565
1612.822998	267.826630
1611.973389	267.780762
1611.123657	279.503448
1610.273804	311.813599
1609.423828	344.112640
1608.573608	291.122345
1607.723389	314.593475
1606.872925	308.660309
1606.022339	293.911835
1605.171509	264.475311
1604.320679	270.306213
1603.469604	267.322266
1602.618408	281.961975
1601.767090	267.230621
1600.915649	252.504333
1600.064087	267.139008
1599.212280	272.963379
1598.360352	269.981995
1597.508301	261.133453
1596.656128	266.955811
1595.803833	281.575439
1594.951294	231.673370
1594.098633	243.361923
1593.245850	266.772705
1592.392944	278.451202
1591.539795	275.472870
1590.686646	263.705383
1589.833252	231.434998
1588.979736	269.472992
1588.126099	292.855164
1587.272217	275.236603
1586.418335	275.189362
1585.564209	289.777374
1584.709961	286.801086
1583.855591	254.565414
1583.000977	248.670639
1582.146362	269.103180
1581.291504	254.434326
1580.436523	236.846451
1579.581421	286.505768
1578.726074	289.379578
1577.870605	277.639801
1577.015137	300.968292
1576.159424	262.936829
1575.303467	233.681473
1574.447510	219.038742
1573.591309	274.481415
1572.734985	283.192780
1571.878540	277.306091
1571.021973	256.828888
1570.165161	262.620758
1569.308350	250.905609
1568.451294	291.700562
1567.594116	282.900909
1566.736694	291.600281
1565.879272	282.803650
1565.021606	276.925049
1564.163818	259.390442
1563.305908	305.969818
1562.447876	291.349701
1561.589600	265.082642
1560.731201	279.599548
1559.872681	314.495392
1559.014038	288.237854
1558.155273	259.078339
1557.296265	288.138702
1556.437134	290.999115
1555.577881	290.949066
1554.718506	314.170929
1553.859009	322.842346
1552.999268	316.970795
1552.139404	360.528595
1551.279419	331.396667
1550.419312	345.872070
1549.558960	278.974823
1548.698608	302.170715
1547.838013	305.023682
1546.977173	345.633972
1546.116333	333.958527
1545.255249	342.611481
1544.394165	322.231598
1543.532837	345.395996
1542.671265	359.846466
1541.809692	377.193420
1540.947876	380.029449
1540.085938	368.362030
1539.223877	388.598480
1538.361694	397.230011
1537.499268	408.757538
1536.636841	405.788635
1535.774170	521.638367
1534.911377	518.650940
1534.048340	576.501465
1533.185303	666.193359
1532.322021	834.046204
1531.458618	1013.423096
1530.594971	1305.642944
1529.731323	1545.661133
1528.867432	1846.370361
1528.003418	1947.324463
1527.139282	1747.371826
1526.275024	1449.142944
1525.410522	1156.800781
1524.545898	873.234009
1523.681152	754.552185
1522.816284	635.911316
1521.951172	517.311340
1521.086060	473.879456
1520.220703	395.794434
1519.355225	387.060608
1518.489502	335.009583
1517.623779	337.839294
1516.757813	340.668030
1515.891724	326.176636
1515.025513	340.550446
1514.159058	274.124664
1513.292480	279.847382
1512.425781	288.452667
1511.558960	328.779266
1510.692017	325.838989
1509.824829	299.835449
1508.957520	308.431274
1508.090088	345.844513
1507.222534	348.666321
1506.354736	305.390472
1505.486938	319.740479
1504.618896	305.285004
1503.750610	273.557220
1502.882324	282.147125
1502.013794	308.005371
1501.145142	319.464417
1500.276367	310.776520
1499.407471	313.599884
1498.538330	310.669128
1497.669067	273.226563
1496.799683	330.690765
1495.930176	322.008392
1495.060547	298.956116
1494.190674	324.771179
1493.320679	307.473541
1492.450562	316.039642
1491.580200	290.131683
1490.709717	350.395508
1489.839233	333.105316
1488.968384	307.207825
1488.097534	318.637115
1487.226440	330.062439
1486.355347	309.918060
1485.483887	309.864441
1484.612427	349.971527
1483.740845	332.702240
1482.869019	364.188568
1481.997070	361.258423
1481.124878	407.062073
1480.252686	389.794800
1479.380249	338.145782
1478.507690	383.929626
1477.635010	360.945953
1476.762207	349.426880
1475.889160	409.503235
1475.015991	426.611328
1474.142700	423.674805
1473.269165	432.187958
1472.395630	475.038269
1471.521851	460.650116
1470.647949	440.545532
1469.773804	437.609070
1468.899658	537.622559
1468.025269	580.417480
1467.150757	568.882080
1466.276001	568.783569
1465.401245	634.412415
1464.526245	605.730347
1463.651123	622.765747
1462.775879	594.095520
1461.900391	651.107300
1461.024780	653.849670
1460.149048	650.881592
1459.273193	645.060303
1458.397217	613.557190
1457.520996	656.249756
1456.644653	656.135986
1455.768188	653.169983
1454.891479	707.240479
1454.014648	715.671692
1453.137695	781.115723
1452.260620	875.039917
1451.383423	886.287354
1450.505981	980.160706
1449.628418	1011.327576
1448.750732	968.427429
1447.872803	851.498718
1446.994873	757.389221
1446.116699	774.338806
1445.238403	694.506958
1444.359863	719.999023
1443.481201	793.853271
1442.602417	779.491211
1441.723511	836.243225
1440.844482	873.068420
1439.965210	969.591675
1439.085815	1029.123901
1438.206299	1003.363770
1437.326538	1011.715271
1436.446777	963.235779
1435.566772	883.523010
1434.686646	812.359192
1433.806274	729.860352
1432.925781	599.119812
1432.045166	627.405090
1431.164429	598.911682
1430.283569	598.807678
1429.402466	556.141785
1428.521240	570.229980
1427.639893	530.420288
1426.758301	510.476288
1425.876709	467.855286
1424.994873	490.453918
1424.112793	436.513184
1423.230713	476.113434
1422.348389	393.858704
1421.465942	433.452576
1420.583374	416.382050
1419.700562	430.469849
1418.817627	472.868195
1417.934570	484.110199
1417.051392	557.620605
1416.167969	557.523682
1415.284546	588.552063
1414.400757	562.987915
1413.516968	562.890015
1412.633057	557.135925
1411.748901	486.348755
1410.864624	404.277740
1409.980103	358.981415
1409.095459	361.745087
1408.210815	378.635986
1407.325806	353.143768
1406.440796	344.608337
1405.555542	321.955017
1404.670166	330.370026
1403.784668	350.074799
1402.899048	341.545776
1402.013184	299.153320
1401.127197	347.070282
1400.241089	315.976471
1399.354736	282.072723
1398.468262	310.225983
1397.581665	301.712708
1396.694946	290.383148
1395.807983	324.157745
1394.920898	318.464722
1394.033691	307.138123
1393.146362	307.084625
1392.258789	326.748718
1391.371094	326.691803
1390.483276	346.345612
1389.595337	298.424683
1388.707153	323.706207
1387.818848	320.835449
1386.930420	309.524109
1386.041748	376.990936
1385.152954	362.860840
1384.264038	337.486145
1383.375000	334.615417
1382.485718	328.934265
1381.596313	334.498749
1380.706787	297.904907
1379.817139	359.671509
1378.927246	264.087708
1378.037231	342.692352
1377.147095	345.441040
1376.256714	365.036591
1375.366333	387.432800
1374.475586	359.295258
1373.584839	378.878113
1372.693970	387.230072
1371.802856	364.718292
1370.911499	381.484863
1370.020142	353.372833
1369.128540	350.507111
1368.236816	426.142242
1367.344971	400.840179
1366.453003	409.177979
1365.560791	372.679230
1364.668457	403.431885
1363.775879	417.367065
1362.883301	414.493561
1361.990479	327.616760
1361.097534	358.355743
1360.204346	344.297333
1359.311035	375.022644
1358.417603	380.553497
1357.524048	349.712341
1356.630249	366.434509
1355.736450	335.606567
1354.842285	357.917786
1353.948120	349.468018
1353.053711	366.178497
1352.159180	380.088348
1351.264526	363.256256
1350.369751	385.543091
1349.474731	332.402954
1348.579590	379.822693
1347.684204	407.679565
1346.788818	460.653198
1345.893188	569.435303
1344.997314	683.761047
1344.101440	865.015747
1343.205322	1012.728455
1342.309082	1018.130127
1341.412720	1090.463745
1340.516113	1120.945679
1339.619385	1117.961670
1338.722534	1064.804565
1337.825439	975.435608
1336.928223	955.759705
1336.030884	766.145569
1335.133423	646.235168
1334.235718	548.646790
1333.337891	529.059082
1332.439941	453.797577
1331.541870	501.038452
1330.643555	470.337097
1329.745117	409.038177
1328.846436	459.044098
1327.947754	475.653351
1327.048828	436.634491
1326.149780	408.751801
1325.250488	380.878845
1324.351074	433.625519
1323.451538	433.549591
1322.551880	405.686859
1321.651978	394.503052
1320.751953	388.878540
1319.851807	380.478760
1318.951416	394.295776
1318.050903	335.925568
1317.150269	380.278809
1316.249512	410.740173
1315.348511	371.821198
1314.447388	363.433136
1313.546021	416.071899
1312.644653	460.372192
1311.743042	463.064331
1310.841309	468.527863
1309.939331	521.111206
1309.037231	537.648132
1308.135010	576.346436
1307.232666	570.704529
1306.330078	581.684204
1305.427368	595.429382
1304.524536	567.635376
1303.621460	542.619629
1302.718262	539.756470
1301.814941	539.661804
1300.911499	578.305237
1300.007813	586.503357
1299.104004	542.143860
1298.199951	564.173157
1297.295898	619.375549
1296.391602	812.787720
1295.487061	1055.885742
1294.582520	1329.298218
1293.677734	1409.195679
1292.772827	1292.917236
1291.867676	1010.950073
1290.962402	748.413574
1290.057007	612.983948
1289.151489	485.883911
1288.245728	416.793091
1287.339844	358.765472
1286.433838	372.498718
1285.527588	391.744659
1284.621216	355.818207
1283.714722	366.786896
1282.808105	413.596741
1281.901245	369.414856
1280.994263	333.517487
1280.087036	322.435455
1279.179810	336.155670
1278.272217	311.302582
1277.364624	347.055145
1276.456787	316.701019
1275.548828	302.878143
1274.640747	327.601501
1273.732544	357.821075
1272.824097	327.486328
1271.915405	332.931732
1271.006714	327.371155
1270.097778	313.560944
1269.188721	354.756561
1268.279541	318.949799
1267.370117	313.395538
1266.460571	299.597412
1265.550781	313.285278
1264.640991	310.482544
1263.730957	313.175079
1262.820679	302.133301
1261.910400	340.526703
1260.999878	293.789886
1260.089233	326.680786
1259.178345	304.665436
1258.267334	332.054291
1257.356201	293.583130
1256.444824	331.937408
1255.533447	315.422180
1254.621704	287.943451
1253.709961	307.085602
1252.797974	307.031555
1251.885864	296.014008
1250.973633	295.961884
1250.061157	276.730408
1249.148560	287.639374
1248.235840	293.066589
1247.322876	273.845764
1246.409790	262.845612
1245.496582	279.224274
1244.583130	276.438049
1243.669556	270.916290
1242.755859	300.965057
1241.841919	279.027527
1240.927856	287.183594
1240.013672	262.521576
1239.099365	276.145905
1238.184814	292.499023
1237.270142	270.582245
1236.355225	289.663239
1235.440186	284.147797
1234.525024	262.244019
1233.609741	308.628632
1232.694214	300.381989
1231.778564	289.407959
1230.862671	272.978210
1229.946777	300.223083
1229.030640	286.526001
1228.114258	267.377106
1227.197876	297.336365
1226.281128	302.738647
1225.364380	291.777649
1224.447388	343.528015
1223.530273	324.385864
1222.613037	378.837646
1221.695557	376.045807
1220.777954	403.224304
1219.860229	386.809082
1218.942261	422.146667
1218.024170	465.640869
1217.105957	443.778137
1216.187500	476.364807
1215.268921	419.127014
1214.350220	421.774109
1213.431274	440.744141
1212.512207	437.946136
1211.593018	378.035767
1210.673706	397.003418
1209.754150	421.401764
1208.834351	405.017883
1207.914551	388.639740
1206.994507	388.571075
1206.074219	407.520020
1205.153931	421.029602
1204.233398	344.911682
1203.312744	366.573608
1202.391846	314.926086
1201.470825	347.443237
1200.549683	382.662781
1199.628296	369.027924
1198.706787	377.101563
1197.785156	390.597290
1196.863281	371.544220
1195.941284	363.343933
1195.019165	441.899902
1194.096802	430.979492
1193.174438	395.672180
1192.251709	436.246277
1191.328979	422.623474
1190.406006	373.793091
1189.482788	360.186127
1188.559570	384.491577
1187.636108	395.252380
1186.712402	419.542999
1185.788696	373.462494
1184.864746	400.454102
1183.940552	413.909668
1183.016357	381.378662
1182.091919	354.267792
1181.167236	381.243652
1180.242554	337.922119
1179.317505	367.594147
1178.392456	354.016968
1177.467163	326.934875
1176.541748	340.384277
1175.616211	372.735809
1174.690430	334.862701
1173.764526	367.203735
1172.838501	315.847229
1171.912231	356.277344
1170.985840	369.707184
1170.059204	415.509613
1169.132446	415.436005
1168.205566	447.728271
1167.278564	404.502045
1166.351318	417.911377
1165.423828	361.227081
1164.496338	366.553558
1163.568604	366.488556
1162.640747	320.620636
1161.712646	347.501923
1160.784424	344.746979
1159.856079	358.150146
1158.927490	363.471405
1157.998779	384.942169
1157.069946	382.182465
1156.140869	395.569427
1155.211670	363.213593
1154.282349	333.559235
1153.352783	344.258118
1152.423096	301.172424
1151.493164	322.627472
1150.563232	319.882141
1149.632935	373.577545
1148.702637	373.511230
1147.772095	416.431396
1146.841431	462.022522
1145.910522	531.768738
1144.979492	631.027588
1144.048340	601.383362
1143.116943	614.697937
1142.185425	574.331848
1141.253784	558.130005
1140.321899	547.299500
1139.389893	472.096100
1138.457764	466.648499
1137.525391	429.025848
1136.592896	434.311493
1135.660278	412.790680
1134.727417	388.597504
1133.794434	463.554626
1132.861206	549.201233
1131.927856	578.567749
1130.994385	715.046936
1130.060669	805.958313
1129.126831	894.160278
1128.192871	931.474426
1127.258667	899.194763
1126.324341	762.574280
1125.389893	722.310364
1124.455200	569.721313
1123.520386	545.551514
1122.585327	470.588226
1121.650146	446.444641
1120.714844	411.618256
1119.779297	400.855560
1118.843628	395.440460
1117.907837	387.355865
1116.971802	360.577515
1116.035645	357.842896
1115.099365	365.789215
1114.162842	389.749786
1113.226196	376.335205
1112.289307	381.605377
1111.352417	408.218414
1110.415161	426.819092
1109.477905	498.756012
1108.540405	466.667175
1107.602661	501.244659
1106.664917	447.841003
1105.726807	445.096008
1104.788696	365.073639
1103.850342	386.322998
1102.911865	354.288330
1101.973145	348.898529
1101.034302	316.881927
1100.095337	316.825470
1099.156128	316.769043
1098.216797	306.066803
1097.277344	329.961060
1096.337646	316.599762
1095.397827	327.183441
1094.457764	308.508270
1093.517700	321.748688
1092.577271	369.546265
1091.636841	324.292145
1090.696167	295.000092
1089.755249	387.948975
1088.814209	337.402313
1087.873047	369.217010
1086.931763	347.905060
1085.990234	369.085327
1085.048584	369.019531
1084.106689	334.447235
1083.164673	363.580170
1082.222412	342.288147
1081.280151	363.450470
1080.337524	387.257690
1079.394897	368.624756
1078.452026	381.816528
1077.509033	408.258698
1076.565796	344.572449
1075.622437	360.411469
1074.678955	347.099091
1073.735229	347.037140
1072.791382	341.677887
1071.847290	386.636169
1070.903076	362.737671
1069.958740	362.672913
1069.014160	394.369446
1068.069458	404.884247
1067.124512	415.395264
1066.179565	473.518951
1065.234253	552.780945
1064.288940	621.436890
1063.343384	729.727478
1062.397583	822.118469
1061.451660	821.971619
1060.505615	898.457947
1059.559448	758.268677
1058.613037	689.452148
1057.666382	636.506775
1056.719727	509.642578
1055.772827	432.986755
1054.825684	427.629974
1053.878418	390.604462
1052.931030	377.340912
1051.983398	395.741394
1051.035645	371.930389
1050.087769	345.490570
1049.139648	337.518219
1048.191406	334.821472
1047.242920	345.305267
1046.294312	316.253601
1045.345581	358.356628
1044.396606	287.160919
1043.447510	345.058258
1042.498291	334.462280
1041.548828	376.531891
1040.599121	386.994995
1039.649414	418.511536
1038.699341	344.749695
1037.749268	339.425568
1036.798950	326.211151
1035.848511	323.522491
1034.897827	328.724182
1033.947021	328.665314
1032.996094	331.235352
1032.044922	360.088226
1031.093506	328.488831
1030.142090	299.528168
1029.190430	336.252106
1028.238525	325.685883
1027.286499	325.627563
1026.334351	315.066986
1025.381958	330.761078
1024.429443	320.203369
1023.476807	301.776947
1022.523926	314.841278
1021.570923	314.784851
1020.617737	351.446777
1019.664368	309.427521
1018.710815	340.833618
1017.757080	293.588654
1016.803223	343.332306
1015.849121	330.168823
1014.894897	301.290558
1013.940491	303.855988
1012.985962	358.800049
1012.031189	288.035980
1011.076294	324.636871
1010.121216	382.165192
1009.165955	348.074341
1008.210510	374.178223
1007.254944	358.414124
1006.299133	358.349854
1005.343201	379.207336
1004.387085	350.377014
1003.430786	352.928436
1002.474365	318.885498
1001.517700	321.441620
1000.560913	376.254364
999.603943	313.489014
998.646790	287.313354
997.689514	292.484741
996.731995	323.764252
995.774353	300.211334
994.816528	326.258057
993.858521	302.713135
992.900330	302.658752
991.942017	299.995758
990.983459	323.415588
990.024780	294.672577
989.065918	307.655914
988.106873	336.275269
987.147705	310.151703
986.188293	330.942749
985.228760	310.040253
984.269043	333.428772
983.309143	302.115509
982.349060	325.497009
981.388794	286.385895
980.428406	325.380005
979.467834	307.103516
978.507019	304.446228
977.546082	325.204590
976.585022	361.562469
975.623718	327.688354
974.662292	335.430115
973.700623	322.370972
972.738831	348.306000
971.776855	301.464386
970.814758	324.795441
969.852417	303.953827
968.889954	301.301727
967.927246	314.232330
966.964417	319.368774
966.001404	306.331177
965.038208	332.231659
964.074890	326.981689
963.111328	352.869110
962.147644	339.834808
961.183777	342.367310
960.219727	368.237946
959.255493	329.280273
958.291077	357.736206
957.326538	355.079987
956.361755	432.756775
955.396851	484.496674
954.431763	489.590271
953.466492	520.581604
952.501038	538.614258
951.535461	494.503815
950.569641	476.294830
949.603699	383.037689
948.637573	367.442932
947.671265	369.963898
946.704773	315.576660
945.738098	375.003021
944.771240	390.450012
943.804260	341.259033
942.837097	307.594727
941.869751	320.461090
940.902222	366.913483
939.934509	317.762146
938.966614	317.704834
937.998535	317.647552
937.030334	358.902832
936.061951	340.767120
935.093323	312.313538
934.124573	361.289337
933.155640	340.582794
932.186584	363.738708
931.217285	379.148529
930.247864	368.765045
929.278198	345.493713
928.308411	358.320587
927.338440	347.946411
926.368286	319.537537
925.397949	316.903412
924.427429	394.125793
923.456787	368.299438
922.485901	352.782623
921.514893	332.122223
920.543701	314.043365
919.572327	352.591583
918.600769	357.674316
917.629028	342.173340
916.657104	326.677917
915.685059	375.483185
914.712769	367.701355
913.740356	385.631042
912.767761	367.568512
911.794983	377.781891
910.822021	372.574677
909.848877	349.386200
908.875549	331.343201
907.902039	385.213165
906.928406	354.332062
905.954590	397.909729
904.980530	364.470764
904.006348	354.139954
903.031982	351.510162
902.057434	341.185394
901.082703	366.772125
900.107849	335.933289
899.132751	335.872528
898.157532	356.319397
897.182068	348.565979
896.206482	366.440582
895.230713	374.060486
894.254761	376.554413
893.278625	345.752716
892.302307	345.690155
891.325806	350.748016
890.349182	327.646881
889.372314	319.909760
888.395325	330.087097
887.418091	353.052521
886.440735	312.062408
885.463196	355.482147
884.485474	375.873505
883.507568	363.022949
882.529480	365.513275
881.551270	337.335785
880.572815	352.605347
879.594238	342.322906
878.615417	347.369263
877.636475	370.289856
876.657349	370.222809
875.677979	365.050140
874.698486	367.536346
873.718811	370.021606
872.739014	400.571503
871.758972	454.068848
870.778748	408.077789
869.798401	436.054108
868.817810	390.082977
867.837097	379.815857
866.856140	349.163361
865.875061	356.744598
864.893799	341.393646
863.912354	387.182281
862.930725	371.831329
861.948914	374.310211
860.966919	343.691956
859.984741	386.901489
859.002441	384.286377
858.019897	396.939087
857.037231	368.882843
856.054321	328.119019
855.071289	381.464508
854.088074	381.395294
853.104614	381.326080
852.121033	429.549438
851.137268	409.141449
850.153320	396.363251
849.169189	414.073608
848.184937	416.538330
847.200439	441.856781
846.215759	449.393402
845.230896	426.465424
844.245911	408.621826
843.260681	403.472504
842.275330	388.176636
841.289795	395.716034
840.304016	400.716522
839.318115	400.643738
838.332031	410.712006
837.345764	344.732635
836.359314	430.837494
835.372681	364.878387
834.385864	387.612854
833.398865	440.734497
832.411743	450.784393
831.424377	460.830597
830.436829	460.746857
829.449158	425.227478
828.461243	445.395416
827.473206	404.831299
826.484924	409.817169
825.496521	414.801208
824.507935	460.244476
823.519104	434.877228
822.530151	391.823883
821.541016	369.005707
820.551697	381.573456
819.562195	356.238892
818.572510	381.434631
817.582642	361.160461
816.592590	378.770721
815.602356	393.849884
814.611938	355.914917
813.621399	338.183807
812.630615	365.878571
811.639648	322.923676
810.648560	401.058746
809.657227	406.029572
808.665771	375.698090
807.674072	330.251617
806.682251	355.396942
805.690186	325.091187
804.697998	327.551605
803.705566	375.356140
802.713013	360.175537
801.720276	397.883698
800.727356	337.384186
799.734253	385.152069
798.740906	400.183136
797.747437	379.978912
796.753784	389.973480
795.759949	389.902435
794.765930	372.226074
793.771729	374.672821
792.777344	377.118652
791.782776	382.077240
790.788025	412.166077
789.793091	359.323212
788.798035	424.577271
787.802734	429.523529
786.807251	434.467957
785.811584	439.410553
784.815796	456.903625
783.819763	466.860291
782.823547	396.507904
781.827148	431.562775
780.830627	446.535828
779.833862	441.438019
778.836975	428.818909
777.839844	371.073792
776.842529	426.155609
775.845093	388.482727
774.847412	418.482422
773.849609	380.824677
772.851563	403.299866
771.853394	403.226227
770.854980	368.095886
769.856445	403.079010
768.857666	350.439484
767.858765	375.402313
766.859680	377.835999
765.860352	400.282898
764.860901	417.718964
763.861206	432.647797
762.861389	357.556824
761.861389	379.990967
760.861145	402.416901
759.860779	359.859894
758.860168	369.788422
757.859436	382.211426
756.858521	339.681396
755.857361	392.060547
754.856079	364.524689
753.854614	396.909790
752.852905	386.853912
751.851074	446.672180
750.848999	461.560028
749.846802	543.792908
748.844421	790.600159
747.841797	1082.200928
746.839050	1181.726807
745.836121	1004.533325
744.832947	730.209534
743.829651	585.555786
742.826111	535.623230
741.822449	473.254852
740.818604	435.812866
739.814514	423.283600
738.810303	408.269470
737.805847	375.837830
736.801270	365.814911
735.796448	353.307526
734.791504	350.755249
733.786316	375.562714
732.781006	390.414246
731.775452	435.095459
730.769775	425.072571
729.763855	420.024017
728.757751	385.158569
727.751526	355.274780
726.745056	350.241730
725.738403	399.848145
724.731628	402.257965
723.724609	394.736420
722.717407	407.074921
721.710083	431.817413
720.702515	401.963226
719.694763	429.178375
718.686829	476.226257
717.678711	466.219421
716.670410	443.819031
715.661987	401.595001
714.653320	399.042847
713.644470	403.925842
712.635437	351.821777
711.626221	374.051758
710.616821	383.889984
709.607178	420.963409
708.597412	443.168427
707.587463	433.185730
706.577332	368.759064
705.567017	405.807983
704.556458	395.837585
703.545776	413.079681
702.534912	408.057739
701.523804	403.037598
700.512573	444.990509
699.501099	420.191681
698.489502	444.827179
697.477661	429.920685
696.465698	422.430695
695.453491	476.690979
694.441101	434.622833
693.428589	451.825989
692.415833	394.966583
691.402893	449.191986
690.389771	441.706573
689.376465	409.552094
688.362976	429.210693
687.349304	416.800476
686.335449	409.326416
685.321411	473.350800
684.307190	446.149750
683.292725	601.328918
682.278137	882.115601
681.263367	1143.090454
680.248352	1236.478394
679.233215	1118.043823
678.217834	866.694031
677.202332	593.280823
676.186584	462.723206
675.170654	460.177277
674.154541	435.488800
673.138306	410.809326
672.121826	430.409668
671.105164	410.658234
670.088318	413.041290
669.071289	415.423431
668.054016	388.312592
667.036621	363.668945
666.019043	397.996796
665.001282	365.991425
663.983276	380.659271
662.965149	412.509613
661.946777	353.514587
660.928223	412.357788
659.909546	402.465637
658.890625	377.855499
657.871521	390.051697
656.852234	412.054230
655.832764	394.812592
654.813110	380.029083
653.793274	394.667206
652.773254	394.594513
651.752991	355.314697
650.732605	372.399200
649.711975	379.679230
648.691223	386.956573
647.670227	386.885284
646.649048	418.640442
645.627747	423.458801
644.606201	406.249756
643.584473	411.068542
642.562561	442.795807
641.540466	440.268250
640.518127	401.059357
639.495667	454.776154
638.473022	452.247711
637.450134	432.611267
636.427063	408.094696
635.403870	410.462677
634.380432	388.401947
633.356812	427.407593
632.333008	412.677490
631.309021	358.889954
630.284851	414.966217
629.260498	395.365448
628.235901	419.693268
627.211182	414.736572
626.186218	429.295105
625.161133	382.880066
624.135803	416.945282
623.110291	416.868317
622.084595	411.916626
621.058716	399.655945
620.032654	421.510468
619.006409	453.100983
617.979919	421.354828
616.953308	387.185242
615.926453	401.721802
614.899414	401.647614
613.872253	425.911224
612.844849	496.399078
611.817261	452.515564
610.789490	398.918488
609.761475	374.524994
608.733337	391.476501
607.705017	432.732574
606.676453	398.623749
605.647705	393.689697
604.618774	405.765625
603.589722	427.554169
602.560425	405.615631
601.530884	390.970306
600.501221	415.177399
599.471375	468.505402
598.441284	495.116211
597.411011	538.703308
596.380615	487.654694
595.349976	506.970062
594.319153	438.969421
593.288147	448.587402
592.256897	492.142670
591.225525	511.442841
590.193970	441.068115
589.162170	489.446564
588.130188	453.017670
587.098022	435.979095
586.065674	464.958282
585.033142	423.711670
584.000427	375.218018
582.967468	428.395447
581.934387	423.476410
580.901062	394.364990
579.867554	435.414459
578.833862	454.682007
577.799988	415.908630
576.765930	389.237701
575.731628	427.840454
574.697205	444.678314
573.662537	422.849396
572.627747	374.454376
571.592712	398.538879
570.557434	362.240936
569.522034	434.608582
568.486450	383.833099
567.450623	359.625977
566.414673	410.235474
565.378479	378.794312
564.342102	364.250549
563.305542	388.301117
562.268799	412.342743
561.231812	419.499023
560.194702	426.652649
559.157349	419.343445
558.119812	431.313568
557.082092	457.733948
556.044189	484.144501
555.006042	488.871185
553.967773	445.440338
552.929260	438.135681
551.890625	399.544098
550.851746	450.005341
549.812683	418.643829
548.773376	432.999451
547.733948	466.590576
546.694275	447.266693
545.654419	435.162598
544.614441	423.062988
543.574158	444.614349
542.533752	425.308777
541.493164	408.412811
540.452332	429.954803
539.411316	463.496490
538.370178	465.811493
537.328735	463.324310
536.287170	441.636475
535.245422	412.757416
534.203430	436.673798
533.161255	443.789246
532.118896	364.559082
531.076355	405.256805
530.033630	381.206268
528.990723	393.120819
527.947571	445.773651
526.904236	443.294617
525.860718	450.399445
524.817017	450.315704
523.773132	517.287781
522.729004	493.247559
521.684692	483.579987
520.640198	466.735474
519.595520	445.111023
518.550659	471.347107
517.505615	430.592377
516.460327	444.862701
515.414856	423.258331
514.369202	406.443665
513.323364	401.587219
512.277283	413.462280
511.231079	494.628693
510.184631	465.867859
509.138000	391.733887
508.091187	439.424500
507.044159	384.424866
505.996948	384.353302
504.949554	448.726501
503.901947	474.893341
502.854126	405.612244
501.806152	417.464264
500.757965	479.398224
499.709564	507.924377
