#Wave		#Intensity
3200.600830	46.308376
3200.007080	16.839409
3199.413086	29.464512
3198.819092	21.042900
3198.224854	21.039719
3197.630615	25.243847
3197.036377	29.446701
3196.442139	12.618108
3195.847656	16.821600
3195.252930	21.023821
3194.658447	12.612386
3194.063721	12.610478
3193.468750	12.608572
3192.873779	21.011108
3192.278809	8.403172
3191.683838	37.808559
3191.088623	46.203472
3190.493164	16.798721
3189.897949	37.791405
3189.302490	33.587280
3188.706787	37.779976
3188.111328	33.577118
3187.515381	25.179029
3186.919678	37.762833
3186.323730	29.366648
3185.727783	12.583802
3185.131592	50.327591
3184.535400	8.386662
3183.939209	8.385394
3183.342773	20.960312
3182.746338	12.574285
3182.149902	33.526348
3181.553223	20.950798
3180.956543	25.137152
3180.359619	0.000000
3179.762695	4.188257
3179.165771	41.876232
3178.568604	20.934946
3177.971436	-4.186355
3177.374268	25.114328
3176.776855	37.665791
3176.179443	12.553363
3175.581787	8.367641
3174.984131	20.915936
3174.386475	50.190643
3173.788574	12.545760
3173.190674	33.450294
3172.592773	37.625881
3171.994629	12.540061
3171.396484	41.793873
3170.798340	4.178754
3170.199951	33.424969
3169.601563	20.887442
3169.002930	33.414845
3168.404297	12.528667
3167.805664	16.702360
3167.206787	16.699829
3166.607910	41.743244
3166.008789	25.042152
3165.409912	20.865297
3164.810547	29.206989
3164.211426	20.858974
3163.612061	33.369301
3163.012695	16.682121
3162.413086	25.019390
3161.813477	8.338532
3161.213623	20.843170
3160.614014	16.672009
3160.013916	25.004221
3159.414063	16.666954
3158.813965	29.162746
3158.213867	20.827375
3157.613525	29.153904
3157.013184	33.313694
3156.412598	29.145063
3155.812256	24.977694
3155.211426	29.136223
3154.610840	-4.161686
3154.010010	45.771606
3153.409180	12.481272
3152.808105	33.278343
3152.207031	29.114134
3151.605957	33.268250
3151.004639	24.947401
3150.403320	8.314539
3149.801758	29.096470
3149.200195	29.092054
3148.598633	20.776886
3147.996826	24.928480
3147.395020	24.924696
3146.793213	12.460457
3146.191162	29.069988
3145.589111	8.304450
3144.986816	29.061163
3144.384766	41.509647
3143.782227	4.150334
3143.179932	24.898228
3142.577393	-4.149075
3141.974609	16.593779
3141.371826	12.443444
3140.769043	49.766220
3140.166260	33.172443
3139.563232	8.291851
3138.960205	29.017073
3138.356934	24.868000
3137.753662	29.008261
3137.150391	24.860447
3136.546875	20.713892
3135.943359	24.852896
3135.339600	12.424561
3134.735840	24.845346
3134.132080	24.841572
3133.528076	28.977430
3132.924072	33.112034
3132.320068	20.691875
3131.715820	0.000000
3131.111572	28.959824
3130.507080	41.364891
3129.902588	28.951023
3129.298096	28.946623
3128.693604	45.480637
3128.088867	24.803850
3127.483887	45.466812
3126.878906	20.663591
3126.273926	28.924631
3125.668945	0.000000
3125.063721	37.177505
3124.458252	24.781237
3123.853027	28.907047
3123.247559	20.644751
3122.641846	16.513290
3122.036133	33.021557
3121.430420	16.508268
3120.824707	20.632196
3120.218750	28.880684
3119.612549	16.500738
3119.006592	20.622786
3118.400391	16.495718
3117.793945	4.123302
3117.187500	28.858727
3116.581055	32.976383
3115.974609	37.092789
3115.367920	24.724764
3114.760986	28.841169
3114.154297	41.195400
3113.547363	45.308044
3112.940186	32.946293
3112.333008	12.352980
3111.725830	24.702200
3111.118408	16.465626
3110.510986	28.810461
3109.903564	16.460615
3109.295898	24.687164
3108.688232	53.480713
3108.080566	45.246021
3107.472656	20.563244
3106.864746	24.672134
3106.256592	20.556982
3105.648438	24.664623
3105.040039	20.550724
3104.431885	28.766632
3103.823486	36.980038
3103.214844	32.866138
3102.606201	45.184059
3101.997559	20.535080
3101.388672	20.531952
3100.779785	20.528826
3100.170898	24.630838
3099.561768	28.731602
3098.952637	20.519445
3098.343262	36.929375
3097.733887	-4.102639
3097.124512	24.612083
3096.514893	28.709723
3095.905273	20.503819
3095.295410	32.801113
3094.685791	32.796112
3094.075684	12.296668
3093.465820	12.294794
3092.855713	12.292921
3092.245361	20.485079
3091.635254	4.096391
3091.024658	24.574600
3090.414307	24.570854
3089.803711	28.661627
3089.193115	8.187788
3088.582275	20.466349
3087.971436	20.463228
3087.360596	8.184044
3086.749512	28.639784
3086.138428	28.635418
3085.527100	24.540901
3084.915771	28.626684
3084.304443	20.444513
3083.692871	28.617952
3083.081299	40.876553
3082.469482	36.783287
3081.857910	24.518452
3081.245850	36.772064
3080.634033	32.681293
3080.021973	20.422693
3079.409668	8.167830
3078.797607	24.499754
3078.185059	20.413345
3077.572754	28.574324
3076.960205	24.488541
3076.347656	28.565603
3075.734863	32.641422
3075.122070	36.715996
3074.509033	12.236797
3073.895996	12.234929
3073.282959	36.699184
3072.669922	8.154130
3072.056641	24.458654
3071.443115	24.454920
3070.829834	4.075198
3070.216064	12.223727
3069.602539	12.221861
3068.988770	12.219995
3068.375000	32.581676
3067.760986	48.865051
3067.146973	16.285862
3066.532715	28.495907
3065.918701	28.491554
3065.304199	32.556805
3064.689941	36.620808
3064.075439	48.820286
3063.460693	16.270943
3062.846191	24.402685
3062.231445	16.265972
3061.616455	24.395229
3061.001465	16.261002
3060.386475	20.323147
3059.771240	32.512066
3059.156006	32.507095
3058.540771	48.753193
3057.925293	40.621452
3057.309814	16.246098
3056.694092	52.791748
3056.078369	16.241131
3055.462646	24.357973
3054.846680	28.413292
3054.230713	44.642632
3053.614502	12.173402
3052.998291	8.114361
3052.382080	48.678719
3051.765625	28.391579
3051.149170	16.221279
3050.532715	16.218798
3049.916016	20.270397
3049.299316	28.374216
3048.682373	16.211357
3048.065430	44.574417
3047.448486	16.206400
3046.831299	28.356861
3046.214111	12.151081
3045.596680	32.397926
3044.979248	24.294727
3044.361816	36.436516
3043.744141	28.335176
3043.126465	24.283577
3042.508545	20.233219
3041.890869	12.138073
3041.272705	28.317837
3040.654785	32.358288
3040.036621	32.353336
3039.418213	28.304838
3038.799805	44.472221
3038.181396	28.296173
3037.562988	12.125075
3036.944336	24.246437
3036.325439	16.161818
3035.706543	32.318687
3035.087646	60.588257
3034.468750	44.424587
3033.849609	44.417786
3033.230469	16.149448
3032.611084	20.183720
3031.991699	12.108377
3031.372070	40.355076
3030.752441	24.209337
3030.132813	36.308441
3029.513184	36.302883
3028.893066	8.066072
3028.273193	36.291759
3027.653076	44.349800
3027.032959	32.249458
3026.412598	52.397343
3025.792480	32.239578
3025.171875	20.146648
3024.551270	40.287125
3023.930664	20.140474
3023.310059	36.247299
3022.689209	20.134302
3022.068115	28.183702
3021.447266	20.128132
3020.826172	40.250092
3020.204834	24.146353
3019.583496	24.142653
3018.962158	20.115791
3018.340576	52.293041
3017.718994	16.087700
3017.097412	24.127850
3016.475586	24.124151
3015.853760	16.080301
3015.231689	32.155670
3014.609619	16.075369
3013.987549	20.091129
3013.365234	28.123268
3012.742920	28.118956
3012.120361	20.081886
3011.497803	36.141853
3010.875244	48.181744
3010.252441	32.116234
3009.629639	24.083481
3009.006836	16.053190
3008.383789	56.177547
3007.760498	32.096531
3007.137451	28.080154
3006.514160	16.043341
3005.890625	32.081757
3005.267090	36.086437
3004.643555	28.062922
3004.019775	20.041868
3003.395996	32.062065
3002.772217	48.085716
3002.148193	48.078335
3001.524170	24.035477
3000.899902	20.026489
3000.275635	24.028097
2999.651367	16.016273
2999.026855	52.044895
2998.402344	40.028385
2997.777588	36.020016
2997.152832	60.024139
2996.528076	20.004974
2995.903076	28.002663
2995.278076	31.998127
2994.653076	19.995758
2994.027832	31.988298
2993.402344	47.975079
2992.777100	39.973091
2992.151367	35.970253
2991.525879	31.968647
2990.900146	39.954670
2990.274414	43.943382
2989.648438	23.965435
2989.022461	31.949003
2988.396240	23.958071
2987.770264	23.954388
2987.143799	27.942492
2986.517578	59.867565
2985.891113	43.896133
2985.264404	35.909496
2984.637695	43.882641
2984.010986	43.875893
2983.384033	27.916731
2982.757080	31.899929
2982.130127	39.868782
2981.502930	15.945061
2980.875732	43.842175
2980.248291	47.820473
2979.620850	51.797546
2978.993408	23.902884
2978.365723	23.899206
2977.738037	15.930354
2977.110107	35.837784
2976.482178	27.869545
2975.854248	55.730515
2975.226074	47.761665
2974.597900	23.877159
2973.969482	63.662624
2973.341309	19.891510
2972.712646	39.776897
2972.083984	23.862467
2971.455322	47.717590
2970.826660	23.855124
2970.197754	23.851452
2969.568604	31.797043
2968.939697	43.714203
2968.310547	31.787254
2967.681152	31.782362
2967.051758	27.805286
2966.422363	23.829433
2965.792725	39.709610
2965.163086	35.733147
2964.533203	31.757906
2963.903564	47.629524
2963.273438	43.653675
2962.643311	35.711143
2962.013184	67.443993
2961.383057	47.600193
2960.752686	39.660717
2960.122314	27.758226
2959.491699	47.578205
2958.861084	47.570873
2958.230225	47.563545
2957.599609	59.445274
2956.968506	79.248154
2956.337646	35.656178
2955.706299	47.534245
2955.075195	55.448074
2954.443848	55.439529
2953.812500	59.390343
2953.180908	47.504951
2952.549316	35.623222
2951.917725	55.405365
2951.285889	47.482990
2950.653809	55.388287
2950.021973	47.468357
2949.389893	63.281384
2948.757568	51.408199
2948.125244	51.400272
2947.492920	86.971672
2946.860352	63.242371
2946.227783	63.232620
2945.595215	75.077156
2944.962402	55.311481
2944.329590	86.904640
2943.696533	82.941635
2943.063477	55.285896
2942.430420	122.399887
2941.797119	122.381004
2941.163574	102.626305
2940.530273	102.610474
2939.896729	98.648697
2939.262939	130.196182
2938.629150	106.507721
2937.995361	153.820755
2937.361328	126.192421
2936.727295	145.887482
2936.093262	137.980377
2935.458984	165.550888
2934.824707	173.407501
2934.190186	161.559326
2933.555664	200.933029
2932.921143	161.509460
2932.286377	161.484528
2931.651367	181.149796
2931.016602	129.935226
2930.381592	200.777985
2929.746338	200.746994
2929.111084	224.329651
2928.475830	165.270004
2927.840332	161.310089
2927.204834	224.225739
2926.569336	204.525223
2925.933594	192.695938
2925.297607	231.985794
2924.661865	204.430481
2924.025879	216.191147
2923.389648	239.738602
2922.753418	239.701569
2922.117188	204.304199
2921.480713	216.057602
2920.844238	235.662781
2920.207764	184.573990
2919.571045	192.398468
2918.934082	223.775879
2918.297363	211.965439
2917.660156	227.631409
2917.023193	207.975861
2916.385986	247.178391
2915.748779	203.988724
2915.111328	215.723953
2914.473877	247.063782
2913.836182	239.183517
2913.198486	223.464798
2912.560791	254.788879
2911.922852	246.911041
2911.284912	235.117020
2910.646729	231.162659
2910.008545	282.053162
2909.370361	231.091171
2908.731934	266.301178
2908.093506	262.344391
2907.455078	277.963745
2906.816406	274.006378
2906.177490	281.791565
2905.538574	293.487457
2904.899658	324.742554
2904.260498	324.692322
2903.621338	320.730713
2902.982178	359.788544
2902.342773	277.619934
2901.703369	363.586761
2901.063721	347.894775
2900.424072	410.374146
2899.784424	363.417999
2899.144531	406.340027
2898.504639	367.212036
2897.864502	347.625671
2897.224365	359.287750
2896.583984	413.897888
2895.943848	394.313354
2895.303223	398.155823
2894.662842	413.705719
2894.021973	386.325684
2893.381348	378.462524
2892.740479	366.700714
2892.099609	374.444855
2891.458496	405.585785
2890.817383	428.918518
2890.176025	436.649414
2889.534668	397.601257
2888.893311	401.437134
2888.251709	409.168640
2887.610107	479.237579
2886.968262	436.311340
2886.326416	447.928864
2885.684570	517.959167
2885.042480	513.985107
2884.400391	498.332581
2883.758057	544.966797
2883.115723	591.586548
2882.473389	579.820618
2881.830811	688.673462
2881.188232	797.492554
2880.545410	863.492249
2879.902588	921.693420
2879.259766	1018.760559
2878.616699	1041.929443
2877.973633	944.588013
2877.330322	897.802490
2876.687012	940.409180
2876.043457	714.911011
2875.399902	672.067505
2874.756348	668.079163
2874.112549	633.023315
2873.468750	578.563477
2872.824707	516.355774
2872.180664	489.103271
2871.536621	461.859222
2870.892334	446.265320
2870.248047	516.035461
2869.603760	415.091980
2868.958984	449.936432
2868.314453	418.841339
2867.669678	453.674408
2867.024902	453.604004
2866.379883	445.780914
2865.734863	426.332977
2865.089844	426.266815
2864.444580	453.322510
2863.799316	445.504272
2863.153809	418.321686
2862.508301	445.365967
2861.862549	456.913300
2861.216797	429.741547
2860.571045	522.577515
2859.925049	460.570862
2859.279053	510.806030
2858.632813	549.418152
2857.986572	529.990112
2857.340332	553.115479
2856.693848	518.223511
2856.047363	564.543945
2855.400635	610.849915
2854.753906	517.982117
2854.107178	637.714722
2853.460205	606.700989
2852.813232	660.699097
2852.166016	614.238770
2851.518799	652.768738
2850.871338	718.320251
2850.223877	745.238037
2849.576416	714.236328
2848.928711	802.908508
2848.281006	822.081421
2847.633301	941.580750
2846.985352	891.276001
2846.337158	964.434509
2845.688965	921.856079
2845.040771	998.843628
2844.392578	913.857666
2843.743896	929.136963
2843.095459	905.864075
2842.446777	967.389526
2841.798096	901.728943
2841.149170	809.118103
2840.500244	797.435242
2839.851074	735.683350
2839.202148	700.908630
2838.552734	685.397400
2837.903320	600.591980
2837.253906	592.799866
2836.604492	523.430176
2835.954834	415.600464
2835.304932	434.773590
2834.655029	430.859009
2834.005127	365.403900
2833.354980	346.118256
2832.704834	311.457977
2832.054688	284.497589
2831.404297	265.233490
2830.753906	257.505493
2830.103271	234.408813
2829.452637	245.898849
2828.801758	234.335861
2828.150879	184.366730
2827.500000	165.136154
2826.848877	157.430893
2826.197754	142.049667
2825.546387	180.413391
2824.895020	118.977539
2824.243408	141.983337
2823.591797	138.124451
2822.940186	118.921974
2822.288330	115.067863
2821.636475	126.554939
2820.984619	107.363228
2820.332520	99.678902
2819.680176	103.496582
2819.028076	95.815239
2818.375488	91.968307
2817.723145	80.459732
2817.070557	84.278015
2816.417725	80.434669
2815.764893	84.251762
2815.112061	72.751549
2814.458984	91.882378
2813.805908	111.007240
2813.152832	76.544785
2812.499512	91.839432
2811.845947	84.173027
2811.192383	103.287155
2810.538818	84.146790
2809.885010	87.957932
2809.231201	87.944221
2808.577393	87.930511
2807.923340	72.626930
2807.269287	53.506233
2806.614990	57.319172
2805.960693	68.772278
2805.306152	76.401733
2804.651611	57.292362
2803.997070	49.645638
2803.342285	64.911095
2802.687500	64.900970
2802.032471	83.976395
2801.377441	80.146782
2800.722412	76.318367
2800.067139	91.567757
2799.411621	49.591461
2798.756348	95.353317
2798.100586	53.389530
2797.445068	53.381199
2796.789307	83.871651
2796.133301	60.988049
2795.477539	64.789688
2794.821289	53.347889
2794.165283	80.009346
2793.509033	49.521866
2792.852539	34.279018
2792.196045	72.355522
2791.539551	57.113861
2790.882813	72.332932
2790.226074	60.902435
2789.569092	38.058079
2788.912109	76.104271
2788.255127	68.483154
2787.597900	79.884537
2786.940430	68.461769
2786.283203	57.042564
2785.625488	30.417950
2784.968018	68.429703
2784.310303	53.214787
2783.652588	68.408325
2782.994629	49.398296
2782.336426	56.989132
2781.678467	53.181545
2781.020264	83.557945
2780.361816	53.164932
2779.703369	60.750427
2779.044922	72.129860
2778.386230	64.527161
2777.727539	60.721954
2777.068604	83.479637
2776.409668	49.321171
2775.750732	53.106804
2775.091553	56.891254
2774.432373	68.258835
2773.772949	72.039726
2773.113525	64.446526
2772.453857	83.388344
2771.794189	49.267227
2771.134521	71.994690
2770.474609	53.040428
2769.814697	68.184174
2769.154541	56.811256
2768.494385	53.015549
2767.833984	53.007259
2767.173584	68.141533
2766.513184	75.700974
2765.852539	34.060108
2765.191895	37.838646
2764.531006	64.315636
2763.870117	60.522892
2763.209229	41.602978
2762.548096	37.814972
2761.886719	68.056305
2761.225586	60.485023
2760.563965	41.576946
2759.902588	56.686966
2759.240967	45.342476
2758.579102	90.670761
2757.917236	49.105640
2757.255371	45.321190
2756.593262	86.852020
2755.931152	71.736092
2755.269043	75.499855
2754.606689	71.713631
2753.944092	45.285728
2753.281494	60.371517
2752.618896	79.225212
2751.956055	64.124649
2751.293213	82.971848
2750.630371	60.333714
2749.967285	79.175598
2749.303955	33.927086
2748.640625	79.150795
2747.977295	71.601410
2747.313721	52.750668
2746.650146	90.415550
2745.986572	45.200695
2745.322754	64.024284
2744.658691	67.779800
2743.994873	86.593948
2743.330566	71.522926
2742.666504	82.803040
2742.002197	48.921402
2741.337646	94.064873
2740.673096	45.144066
2740.008545	90.273979
2739.343750	56.412392
2738.678955	75.204735
2738.013916	120.308708
2737.348877	101.494560
2736.683594	82.686310
2736.018311	93.946983
2735.353027	71.388512
2734.687500	105.187630
2734.021973	78.878349
2733.356201	63.843887
2732.690430	90.118416
2732.024658	63.823864
2731.358643	86.336395
2730.692383	112.595024
2730.026367	123.835098
2729.359863	123.815674
2728.693604	112.542046
2728.027100	86.268700
2727.360352	123.757408
2726.693604	116.238724
2726.026855	123.718575
2725.359863	127.447624
2724.692871	134.923370
2724.025635	134.902191
2723.358398	168.601273
2722.691162	149.844284
2722.023682	123.602127
2721.355957	131.072586
2720.688477	134.796356
2720.020508	149.750214
2719.352783	142.240372
2718.684814	145.960632
2718.016602	153.421692
2717.348389	153.397598
2716.680176	127.187798
2716.011719	123.427589
2715.343262	138.366776
2714.674561	149.562210
2714.005859	108.415581
2713.337158	153.253128
2712.668213	138.279877
2711.999023	145.731567
2711.329834	138.236435
2710.660645	130.743652
2709.991455	112.048378
2709.321777	123.233856
2708.652344	93.344315
2707.982666	119.461945
2707.312988	104.512779
2706.643066	141.816483
2705.972900	130.599915
2705.302979	111.925186
2704.632813	104.447090
2703.962402	126.808678
2703.291992	126.788742
2702.621582	74.569893
2701.950928	108.109344
2701.280273	119.274315
2700.609375	111.802086
2699.938477	100.606056
2699.267334	85.687981
2698.596191	115.474335
2697.925049	111.731781
2697.253662	93.095177
2696.582031	78.187653
2695.910645	96.788528
2695.239014	107.939461
2694.567139	107.922478
2693.895264	93.021988
2693.223145	85.566765
2692.551270	107.871552
2691.878906	78.101593
2691.206543	100.400536
2690.534180	92.948830
2689.861816	66.912628
2689.189209	89.202797
2688.516357	89.188759
2687.843506	104.037178
2687.170654	89.160690
2686.497559	70.574432
2685.824463	70.563324
2685.151123	81.692039
2684.477783	59.403042
2683.804199	66.817902
2683.130615	81.653465
2682.457031	96.484352
2681.783203	85.338104
2681.109375	85.324669
2680.435303	81.602043
2679.761230	74.171997
2679.086914	66.744286
2678.412598	103.808090
2677.738281	92.671196
2677.063721	74.125275
2676.389160	88.936317
2675.714355	77.807022
2675.039551	103.726349
2674.364502	77.782509
2673.689453	92.583633
2673.014404	77.757996
2672.339111	81.447922
2671.663574	74.031898
2670.988037	85.123268
2670.312500	81.409424
2669.636719	70.297058
2668.960938	77.684502
2668.285156	62.877541
2667.609131	70.263817
2666.932861	70.252739
2666.256592	55.453949
2665.580322	66.534248
2664.903809	92.394104
2664.227295	70.208450
2663.550781	73.891975
2662.874023	62.798275
2662.197021	70.175240
2661.520020	70.164169
2660.843018	81.229912
2660.165771	73.833725
2659.488525	73.822083
2658.811035	88.572517
2658.133545	66.418907
2657.455811	99.612648
2656.778076	81.153053
2656.100342	70.075668
2655.422363	84.815063
2654.744385	81.114647
2654.066162	88.474739
2653.387939	73.717316
2652.709473	88.446815
2652.031006	103.171669
2651.352539	103.155380
2650.673828	92.088486
2649.994873	81.025070
2649.316162	69.965149
2648.636963	69.954109
2647.958008	95.711555
2647.278809	55.209488
2646.599365	73.601028
2645.919922	84.627815
2645.240479	69.898895
2644.560791	80.922783
2643.880859	80.910004
2643.201172	62.511490
2642.520996	80.884445
2641.841064	55.139774
2641.160889	73.508087
2640.480469	58.797176
2639.800049	95.530319
2639.119629	80.820580
2638.438965	84.480888
2637.758301	66.105034
2637.077393	84.454193
2636.396484	99.126213
2635.715332	95.439781
2635.034180	95.424698
2634.353027	84.400818
2633.671631	40.359226
2632.989990	84.374138
2632.308350	80.692940
2631.626709	77.012901
2630.944824	66.000618
2630.262939	69.656311
2629.581055	84.307465
2628.898926	95.289017
2628.216553	51.301357
2627.534180	80.603668
2626.851807	80.590919
2626.169189	69.590240
2625.486572	62.255108
2624.803711	80.552689
2624.120850	80.539948
2623.437988	84.187531
2622.754883	54.896229
2622.071533	80.501732
2621.388184	73.171814
2620.704834	91.450294
2620.021240	80.463524
2619.337646	73.137085
2618.653809	62.156681
2617.969971	69.458237
2617.286133	102.343307
2616.602051	51.163555
2615.917725	84.041107
2615.233398	73.067657
2614.549072	76.708893
2613.864502	87.653427
2613.179932	91.291199
2612.495117	94.927818
2611.810303	83.961311
2611.125488	72.998276
2610.440430	109.480072
2609.755127	69.326401
2609.069824	72.963600
2608.384521	87.542450
2607.698975	80.234535
2607.013428	87.514725
2606.327637	98.438469
2605.641846	69.260544
2604.956055	83.828423
2604.270020	80.171005
2603.583740	105.663216
2602.897461	87.431564
2602.211182	76.490501
2601.524658	61.911068
2600.838135	83.748756
2600.151367	83.735489
2599.464600	72.801926
2598.777832	87.348465
2598.090820	50.945194
2597.403564	72.767311
2596.716309	90.944717
2596.029053	98.204727
2595.341553	83.642616
2594.654053	90.901474
2593.966309	79.980614
2593.278564	54.523586
2592.590820	87.223907
2591.902832	87.210075
2591.214600	83.563065
2590.526367	98.080215
2589.838135	76.272514
2589.149658	94.417656
2588.461182	101.664421
2587.772461	101.648293
2587.083740	105.261887
2586.394775	79.841179
2585.705811	79.828506
2585.016846	83.443832
2584.327637	97.940262
2583.638184	83.417351
2582.948975	76.151581
2582.259277	87.016571
2581.569824	76.127411
2580.879883	61.617172
2580.190186	90.599106
2579.500244	68.844391
2578.810059	90.570343
2578.119873	83.311485
2577.429688	94.163246
2576.739258	65.179588
2576.048584	90.512833
2575.358154	68.778831
2574.667236	86.864723
2573.976563	61.519409
2573.285645	75.982491
2572.594482	57.882229
2571.903320	75.958359
2571.212158	83.179276
2570.520752	90.397888
2569.829102	79.537506
2569.137451	54.221500
2568.445801	93.969002
2567.753906	75.885986
2567.062012	86.713058
2566.370117	75.861870
2565.677979	93.909294
2564.985596	75.837753
2564.293213	75.825706
2563.600830	68.593307
2562.908203	101.068802
2562.215332	75.789551
2561.522705	97.428215
2560.829590	61.333942
2560.136719	97.397240
2559.443604	82.954826
2558.750244	50.486214
2558.056885	82.928452
2557.363525	93.730293
2556.669922	93.715393
2555.976074	90.096619
2555.282227	72.065834
2554.588379	68.451653
2553.894287	79.247200
2553.200195	50.422012
2552.505859	79.221985
2551.811523	61.207253
2551.117188	68.397224
2550.422607	82.783463
2549.727783	68.375458
2549.032959	75.560844
2548.338135	61.158573
2547.643066	79.133789
2546.947998	75.524780
2546.252686	57.533531
2545.557373	75.500740
2544.861816	68.299316
2544.166260	61.100189
2543.470703	114.993805
2542.774902	68.266701
2542.078857	53.886185
2541.382813	86.204170
2540.686768	53.869026
2539.990479	78.995323
2539.294189	68.212372
2538.597656	75.380608
2537.901123	64.601662
2537.204346	57.414555
2536.507568	96.871628
2535.810791	71.745331
2535.113770	50.213730
2534.416504	53.791855
2533.719238	82.467705
2533.021973	71.699615
2532.324463	68.103783
2531.626953	75.260612
2530.929199	71.665352
2530.231445	71.653931
2529.533447	68.060379
2528.835449	78.794197
2528.137451	75.200653
2527.439209	75.188667
2526.740723	82.336365
2526.042236	89.481781
2525.343750	78.731415
2524.645020	100.187645
2523.946289	93.016548
2523.247314	75.116776
2522.548340	85.834053
2521.849121	67.941116
2521.149902	92.957230
2520.450684	89.367699
2519.751221	92.927582
2519.051514	82.192055
2518.351807	89.324944
2517.652100	75.020981
2516.952148	75.009010
2516.252197	89.282196
2515.552002	57.131489
2514.851807	89.253708
2514.151367	53.543678
2513.450928	64.242165
2512.750244	60.663471
2512.049561	78.493134
2511.348877	82.047913
2510.647949	49.934235
2509.946777	89.154045
2509.245605	82.008629
2508.544434	67.735443
2507.843018	60.595718
2507.141602	74.841583
2506.439941	67.703003
2505.738281	81.943176
2505.036377	78.367920
2504.334473	56.985748
2503.632568	74.781845
2502.930420	74.769905
2502.228027	64.078255
2501.525635	53.390015
2500.823242	49.822720
2500.120605	96.071327
2499.417969	85.383095
2498.715088	96.040634
2498.012207	81.799316
2497.309082	60.450706
2496.605957	53.330334
2495.902588	81.760109
2495.199219	117.289238
2494.495605	85.287636
2493.791992	63.955502
2493.088379	95.917915
2492.384521	67.487007
2491.680664	78.130356
2490.976563	88.770302
2490.272461	74.555130
2489.568115	113.589661
2488.863770	99.375061
2488.159180	95.810623
2487.454590	63.863537
2486.749756	78.042953
2486.044922	81.577309
2485.339844	85.110535
2484.634766	49.639870
2483.929688	53.177071
2483.224365	95.703415
2482.519043	85.056091
2481.813477	81.499046
2481.107666	42.514439
2480.402100	53.134548
2479.696045	88.543411
2478.990234	99.152748
2478.284180	74.352661
2477.577881	81.420837
2476.871582	70.789398
2476.165039	53.083549
2475.458496	81.381744
2474.751953	88.444260
2474.045166	95.504509
2473.338379	99.025856
2472.631348	81.329651
2471.924072	77.781120
2471.217041	77.768669
2470.509521	91.893707
2469.802246	81.277573
2469.094482	88.331039
2468.386963	67.120834
2467.679199	88.302750
2466.971191	81.225517
2466.263184	74.150551
2465.554932	67.077843
2464.846680	81.186485
2464.138428	74.114914
2463.429932	84.689194
2462.721436	81.147469
2462.012695	56.441372
2461.303955	74.067429
2460.594971	59.949738
2459.885986	59.940132
2459.176758	70.506500
2458.467529	95.168518
2457.758057	84.580681
2457.048584	70.472603
2456.338867	102.168892
2455.629150	77.495010
2454.919434	73.960648
2454.209473	80.991531
2453.499512	49.291290
2452.789307	88.006042
2452.078857	80.952576
2451.368408	84.458710
2450.657959	70.370972
2449.947266	87.949608
2449.236572	73.865814
2448.525879	52.752834
2447.814697	109.005035
2447.103760	108.987549
2446.392578	101.939743
2445.681152	84.350388
2444.969727	77.308784
2444.258301	80.809853
2443.546631	77.283974
2442.834717	73.759224
2442.122803	77.259171
2441.410889	94.802856
2440.698730	108.830254
2439.986572	80.732063
2439.274170	94.757210
2438.561768	91.233040
2437.849121	52.625996
2437.136475	84.188072
2436.423584	105.218193
2435.710693	105.201302
2434.997803	77.135231
2434.284424	59.594925
2433.571289	112.160667
2432.857910	70.089157
2432.144287	112.124641
2431.430908	112.106636
2430.717041	77.060928
2430.003174	101.564003
2429.289307	73.534531
2428.575195	98.030289
2427.861084	108.516098
2427.146729	87.498917
2426.432373	101.482437
2425.717773	59.480145
2425.003174	94.453285
2424.288330	90.940399
2423.573486	90.925781
2422.858643	104.897499
2422.143555	97.888596
2421.428223	104.863777
2420.712891	94.362228
2419.997559	83.864052
2419.281982	83.850571
2418.566162	115.275993
2417.850586	101.286858
2417.134521	83.810127
2416.418457	73.322067
2415.702393	73.310280
2414.986084	59.336868
2414.269775	104.695282
2413.553223	73.274910
2412.836670	52.330803
2412.120117	94.180290
2411.403076	87.189941
2410.686279	83.688881
2409.969238	104.594269
2409.251953	87.147865
2408.534668	94.104546
2407.817383	104.543785
2407.099854	87.105797
2406.382080	87.091782
2405.664307	101.010208
2404.946533	73.133545
2404.228516	97.495705
2403.510498	66.147148
2402.792236	104.426048
2402.073975	114.850159
2401.355469	121.791168
2400.636963	107.854805
2399.918213	80.008423
2399.199463	86.951675
2398.480469	93.892685
2397.761475	52.154202
2397.042480	79.956894
2396.323242	100.798981
2395.603760	100.782738
2394.884277	79.918266
2394.164795	111.172714
2393.445068	111.154808
2392.725098	76.406616
2392.005127	90.284180
2391.285156	97.213448
2390.564941	97.197784
2389.844727	104.123703
2389.124268	79.815308
2388.403809	62.454082
2387.683105	65.913132
2386.962402	114.462250
2386.241455	72.827873
2385.520508	93.620735
2384.799316	83.205017
2384.078125	100.523186
2383.356689	79.712433
2382.635254	93.560371
2381.913818	72.757446
2381.192139	79.673874
2380.470215	100.442162
2379.748291	96.962997
2379.026367	114.259392
2378.304199	83.084335
2377.581787	69.225777
2376.859375	93.439720
2376.136963	93.424652
2375.414307	93.409576
2374.691650	58.803947
2373.968750	72.628448
2373.245850	124.485825
2372.522705	82.977158
2371.799316	103.704704
2371.076172	86.406639
2370.352783	100.215530
2369.629150	93.289047
2368.905518	96.728584
2368.181641	86.350868
2367.457764	96.697357
2366.733643	86.322990
2366.009521	103.570862
2365.285400	69.036087
2364.561035	82.829933
2363.836426	69.013794
2363.111816	86.253311
2362.387207	75.890656
2361.662354	93.123489
2360.937256	89.659988
2360.212158	89.645508
2359.487061	99.973068
2358.761719	79.276176
2358.036377	99.940765
2357.310791	79.250557
2356.584961	75.792633
2355.859375	134.337967
2355.133301	113.652214
2354.407471	99.860046
2353.681152	86.072334
2352.955078	106.712448
2352.228516	103.253418
2351.502197	99.795502
2350.775635	86.016701
2350.048828	113.523689
2349.322021	106.626221
2348.594971	79.096985
2347.867920	79.084198
2347.140869	99.698738
2346.413330	106.557274
2345.686035	120.287148
2344.958496	113.395256
2344.230713	103.069923
2343.502930	68.702164
2342.775146	85.863815
2342.047119	92.717926
2341.319092	92.702927
2340.590820	102.986588
2339.862305	82.375938
2339.133789	102.953262
2338.405273	82.349281
2337.676514	113.211937
2336.947754	92.612961
2336.218750	78.879753
2335.489746	102.869987
2334.760498	116.567116
2334.031250	109.692467
2333.301758	102.820038
2332.572266	89.096275
2331.842529	95.934303
2331.112793	71.939079
2330.382813	95.903236
2329.652832	119.859634
2328.922607	116.416222
2328.192383	89.009750
2327.462158	95.841133
2326.731689	106.092644
2326.000977	65.013992
2325.270264	85.530869
2324.539307	85.517014
2323.808350	116.284294
2323.077393	102.587166
2322.346191	85.475456
2321.614746	88.880074
2320.883301	112.791039
2320.151855	112.772766
2319.420166	82.003265
2318.688232	92.238724
2317.956299	95.639465
2317.224365	95.623970
2316.492188	102.437645
2315.760010	92.178932
2315.027588	81.923546
2314.295166	105.800758
2313.562500	109.195984
2312.829590	92.119171
2312.096924	81.870430
2311.363770	136.428589
2310.630615	95.484528
2309.897461	88.649826
2309.164063	112.498833
2308.430664	109.072090
2307.697021	109.054398
2306.963379	95.407120
2306.229492	85.171104
2305.495605	109.001328
2304.761719	81.737732
2304.027344	112.371147
2303.293213	98.734383
2302.558838	71.485710
2301.824219	102.105865
2301.089600	88.477394
2300.354736	108.877579
2299.619873	71.439316
2298.885010	88.434319
2298.149658	98.622261
2297.414551	115.607330
2296.679199	101.989906
2295.943604	74.780457
2295.208008	112.152473
2294.472412	112.134262
2293.736572	95.128777
2293.000488	112.097847
2292.264404	105.286934
2291.528320	118.853043
2290.791992	95.066994
2290.055420	112.025040
2289.318848	122.189285
2288.582275	105.201454
2287.845459	108.577408
2287.108398	108.559769
2286.371582	111.934074
2285.634277	111.915886
2284.896973	118.679375
2284.159668	122.050377
2283.422119	94.912643
2282.684570	118.621521
2281.946777	132.156784
2281.208740	128.747223
2280.470703	149.051498
2279.732666	118.544418
2278.994385	104.979416
2278.256104	132.049408
2277.517578	98.174614
2276.779053	94.773872
2276.040283	125.216537
2275.301514	125.196175
2274.562500	125.175812
2273.823486	91.329659
2273.084229	91.314804
2272.344971	101.444389
2271.605469	131.856247
2270.865967	108.172142
2270.126221	91.255402
2269.386475	145.309021
2268.646484	114.876816
2267.906494	108.101761
2267.166260	135.105209
2266.426025	84.427017
2265.685547	118.178589
2264.945068	114.783379
2264.204346	148.519012
2263.463623	111.371132
2262.722656	107.978668
2261.981689	114.708656
2261.240723	111.316750
2260.499268	124.789368
2259.758057	84.303413
2259.016602	107.890793
2258.274902	124.728416
2257.533203	111.226151
2256.791260	97.728271
2256.049316	87.604179
2255.307129	101.065285
2254.564941	114.521996
2253.822754	84.193634
2253.080322	117.851883
2252.337646	131.299286
2251.594971	131.277893
2250.852051	111.063187
2250.109131	124.505104
2249.366211	107.662544
2248.623047	117.736717
2247.879639	117.717529
2247.136230	124.423965
2246.392578	121.041420
2245.648926	97.489693
2244.905273	110.918465
2244.161377	144.506561
2243.417236	104.162163
2242.673096	100.785660
2241.928955	141.076920
2241.184570	124.261780
2240.439941	104.094246
2239.695313	100.719940
2238.950439	124.200996
2238.205566	83.905907
2237.460693	134.227554
2236.715576	114.074806
2235.970215	124.119980
2235.224854	144.224014
2234.479492	130.786484
2233.733887	110.647430
2232.988037	130.743805
2232.242188	103.907608
2231.496338	103.890656
2230.750244	113.925995
2230.003906	110.557182
2229.257568	154.084854
2228.511230	147.361465
2227.764648	97.108749
2227.017822	120.529106
2226.270996	117.161949
2225.523926	123.836693
2224.776855	117.123695
2224.029785	110.412880
2223.282471	133.811935
2222.534912	110.376823
2221.787354	96.981972
2221.039795	143.777374
2220.291992	103.636528
2219.543945	147.072983
2218.795898	126.996826
2218.047852	137.000504
2217.299561	136.978119
2216.551025	123.594208
2215.802490	133.593536
2215.053955	116.875237
2214.305176	123.533630
2213.556152	163.571854
2212.807129	120.155602
2212.058105	123.473076
2211.308838	116.779770
2210.559326	136.776794
2209.809814	113.406120
2209.060303	120.057434
2208.310547	90.028358
2207.560547	100.015152
2206.810547	133.331741
2206.060303	123.311691
2205.310059	126.623726
2204.559814	129.934677
2203.809326	133.244537
2203.058594	126.561615
2202.307861	126.540909
2201.557129	109.872818
2200.806152	126.499519
2200.054932	133.135605
2199.303711	156.408737
2198.552246	116.455536
2197.800781	119.763245
2197.049316	133.048492
2196.297607	103.095711
2195.545654	123.029579
2194.793701	132.983185
2194.041504	136.285461
2193.289307	126.292671
2192.537109	122.949059
2191.784668	152.830566
2191.031982	146.161819
2190.279297	102.960785
2189.526367	132.830872
2188.773438	136.129364
2188.020508	136.107071
2187.267090	159.318771
2186.513916	172.567062
2185.760498	136.040207
2185.006836	119.430374
2184.253174	119.410812
2183.499268	139.289795
2182.745361	135.951096
2181.991211	152.505508
2181.237061	152.480530
2180.482666	142.512787
2179.728271	152.430557
2178.973877	152.405579
2178.218994	135.817505
2177.464355	155.667725
2176.709229	132.461456
2175.954346	145.683716
2175.198975	142.349380
2174.443848	155.565689
2173.688232	172.087006
2172.932861	142.279388
2172.177002	125.714661
2171.421387	135.617264
2170.665283	138.902222
2169.909424	145.492752
2169.153076	119.020004
2168.396729	105.778206
2167.640381	125.591019
2166.883789	125.570419
2166.127197	115.637993
2165.370361	128.832626
2164.613525	142.022934
2163.856445	145.301941
2163.099365	125.467453
2162.342041	108.940704
2161.584473	148.531128
2160.826904	118.805405
2160.069336	128.684738
2159.311523	112.168274
2158.553711	102.254288
2157.795654	122.025414
2157.037354	125.302826
2156.279053	131.876053
2155.520752	112.076248
2154.762207	135.128586
2154.003662	158.173340
2153.244873	168.031586
2152.485840	138.356232
2151.726807	161.389084
2150.967773	135.017670
2150.208252	121.825203
2149.448975	134.973328
2148.689453	128.368179
2147.929688	125.056137
2147.169922	151.358871
2146.410156	121.725182
2145.650146	118.415855
2144.889893	164.439438
2144.129639	141.394684
2143.369141	141.371445
2142.608643	151.209717
2141.847900	161.044754
2141.087158	131.443497
2140.326416	141.278534
2139.565186	141.255310
2138.804199	118.240822
2138.042725	131.357086
2137.281494	154.319214
2136.519775	114.899666
2135.758301	157.550781
2134.996338	144.397797
2134.234619	121.405457
2133.472412	164.034439
2132.710449	154.167023
2131.947998	124.625175
2131.185547	131.162811
2130.423096	124.584175
2129.660400	127.841675
2128.897705	144.207901
2128.134766	147.461090
2127.371826	160.542328
2126.608643	137.585068
2125.845215	147.388321
2125.081787	144.089310
2124.318359	144.065598
2123.554688	134.220840
2122.790771	140.745041
2122.026855	176.720490
2121.262939	160.331085
2120.498779	130.860962
2119.734375	150.465347
2118.969971	156.981461
2118.205322	173.305161
2117.440674	143.852295
2116.676025	137.290939
2115.911133	137.268326
2115.145996	140.513474
2114.380859	153.559204
2113.615479	163.333954
2112.850098	156.774765
2112.084473	124.092911
2111.318848	140.397797
2110.552979	127.316551
2109.787109	137.087540
2109.020996	137.064957
2108.254883	176.197327
2107.488525	133.757416
2106.722168	150.044556
2105.955566	140.235931
2105.188965	179.341965
2104.422119	146.710159
2103.655029	140.166595
2102.887939	159.698395
2102.120850	117.310089
2101.353516	123.806900
2100.585938	156.361877
2099.818359	136.794083
2099.050781	166.079712
2098.282959	166.052322
2097.514893	123.704857
2096.746826	149.723282
2095.978760	178.987442
2095.210449	172.450363
2094.441895	178.928406
2093.673340	165.888062
2092.904541	185.373718
2092.135742	143.071884
2091.366699	152.801575
2090.597656	172.279724
2089.828369	117.000877
2089.059082	168.973389
2088.289551	146.202835
2087.520020	168.917618
2086.750244	159.146088
2085.980469	152.625137
2085.210449	178.574402
2084.440186	133.097122
2083.670166	162.286758
2082.899658	159.014771
2082.129150	171.967163
2081.358643	171.938766
2080.587891	155.692413
2079.816895	152.423645
2079.045898	165.368561
2078.274902	155.615295
2077.503662	175.038284
2076.732178	165.286621
2075.960693	162.018936
2075.188965	145.792953
2074.417236	178.161957
2073.645264	155.461105
2072.873291	181.341324
2072.101074	168.360550
2071.328857	181.281387
2070.556396	161.831635
2069.783936	165.040985
2069.011230	142.364761
2068.238525	164.986435
2067.465576	158.490173
2066.692627	148.762085
2065.919434	164.904617
2065.145996	164.877350
2064.372559	174.547150
2063.599121	168.054657
2062.825439	168.026855
2062.051514	142.153061
2061.277588	158.280640
2060.503662	151.795090
2059.729248	187.290619
2058.955078	184.031021
2058.180664	219.509460
2057.406006	187.197678
2056.631348	158.123596
2055.856445	174.229828
2055.081543	167.749115
2054.306396	187.073807
2053.531250	141.894577
2052.755859	174.114532
2051.980225	193.428558
2051.204590	174.056900
2050.428955	215.923737
2049.653076	180.443695
2048.877197	177.192139
2048.101074	190.047379
2047.324707	170.692261
2046.548340	177.104141
2045.771851	189.952988
2044.995239	160.950455
2044.218506	164.142273
2043.441528	180.204803
2042.664551	189.827179
2041.887329	196.229492
2041.110107	173.682571
2040.332642	202.596100
2039.555176	189.701431
2038.777466	208.958481
2037.999634	176.781723
2037.221802	205.675552
2036.443726	192.788879
2035.665527	202.394775
2034.887207	189.512894
2034.108765	157.365982
2033.330200	157.339905
2032.551514	163.734787
2031.772705	215.066910
2030.993774	189.355881
2030.214600	176.488922
2029.435425	186.084732
2028.656128	214.924316
2027.876587	179.608444
2027.097046	205.232758
2026.317261	182.755112
2025.537476	205.164688
2024.757446	192.309982
2023.977295	211.505890
2023.197021	192.246185
2022.416626	214.639297
2021.636230	163.355042
2020.855591	195.353027
2020.074707	198.522598
2019.293823	208.093994
2018.512817	198.456711
2017.731689	195.223404
2016.950439	198.390854
2016.168945	207.955887
2015.387451	204.722580
2014.605713	201.490341
2013.823975	233.434174
2013.041992	220.606628
2012.260010	233.356659
2011.477783	220.533371
2010.695435	207.714340
2009.912964	233.240433
2009.130371	223.618073
2008.347656	217.192902
2007.564819	201.189423
2006.781860	229.892578
2005.998779	223.469543
2005.215576	210.664856
2004.432129	232.969391
2003.648682	245.694000
2002.864990	229.701675
2002.081299	223.283966
2001.297363	223.246872
2000.513428	220.021057
1999.729248	216.796310
1998.944946	204.009674
1998.160522	216.724258
1997.375977	232.621185
1996.591309	216.652206
1995.806519	203.874069
1995.021606	226.135193
1994.236572	222.913116
1993.451416	254.715485
1992.666016	248.306305
1991.880615	238.716354
1991.094971	232.311951
1990.309326	264.091583
1989.523438	238.597275
1988.737549	254.461426
1987.951416	213.075989
1987.165161	241.657928
1986.378784	254.334457
1985.592285	267.006744
1984.805664	238.359207
1984.018921	260.562714
1983.232056	257.342285
1982.444946	238.240234
1981.657837	228.672562
1980.870605	234.985474
1980.083130	247.646164
1979.295654	234.907242
1978.507935	276.128754
1977.720093	257.042603
1976.932129	247.481293
1976.144165	260.129333
1975.355957	256.914215
1974.567627	275.898956
1973.779053	240.975052
1972.990479	282.147461
1972.201782	278.930817
1971.412964	215.501541
1970.623901	272.500671
1969.834839	262.951019
1969.045532	272.409882
1968.256226	259.696381
1967.466675	288.151642
1966.677002	272.273743
1965.887207	253.235703
1965.097290	291.172546
1964.307251	262.644470
1963.517090	268.928436
1962.726807	306.843658
1961.936401	265.675995
1961.145874	287.767670
1960.355103	262.425659
1959.564331	268.704376
1958.773315	287.623779
1957.982178	274.935120
1957.191040	290.687500
1956.399658	259.047852
1955.608154	303.224945
1954.816528	312.648560
1954.024780	262.075806
1953.232910	315.701294
1952.440918	271.457825
1951.648682	271.412537
1950.856445	331.320496
1950.063965	280.786713
1949.271484	274.431091
1948.478760	305.923859
1947.685913	305.872803
1946.893066	277.446533
1946.099976	340.445740
1945.306763	324.630188
1944.513428	311.971100
1943.719971	349.727386
1942.926270	280.365234
1942.132568	318.114197
1941.338745	305.464600
1940.544678	302.265015
1939.750610	339.991333
1938.956299	308.459137
1938.161865	317.848694
1937.367310	317.795593
1936.572632	324.034454
1935.777832	345.998413
1934.982910	339.650787
1934.187866	301.861389
1933.392700	301.810944
1932.597290	292.330505
1931.801880	298.567291
1931.006226	320.513428
1930.210571	317.318115
1929.414673	329.830048
1928.618652	364.322784
1927.822510	373.682434
1927.026245	345.363007
1926.229858	361.000977
1925.433350	335.831726
1924.636719	329.499390
1923.839844	354.544830
1923.042969	348.211487
1922.245850	363.835846
1921.448730	335.551086
1920.651367	338.630432
1919.853882	351.113556
1919.056274	366.726929
1918.258545	335.326660
1917.460693	325.870453
1916.662720	344.613037
1915.864624	306.967529
1915.066284	350.761322
1914.267944	366.359009
1913.469360	360.036224
1912.670776	334.934174
1911.871948	391.212769
1911.072998	391.147278
1910.273926	353.537964
1909.474731	362.863190
1908.675415	297.122711
1907.875977	415.902161
1907.076294	353.301331
1906.276611	362.620270
1905.476807	325.053406
1904.676758	353.123901
1903.876587	324.944580
1903.076294	356.129578
1902.275879	346.699677
1901.475342	343.518738
1900.674683	346.583557
1899.873901	371.500336
1899.072998	396.408722
1898.271851	346.409424
1897.470703	377.554230
1896.669312	349.413147
1895.867920	330.639160
1895.066284	389.839355
1894.264526	377.301239
1893.462646	364.767334
1892.660645	352.237610
1891.858521	389.578094
1891.056152	352.119568
1890.253784	389.447510
1889.451172	361.346680
1888.648560	348.827972
1887.845703	401.707733
1887.042725	361.164978
1886.239624	373.556305
1885.436401	351.706543
1884.633057	367.207184
1883.829590	376.479797
1883.025879	395.081940
1882.222168	363.912079
1881.418213	376.290405
1880.614258	370.008636
1879.810059	376.164154
1879.005737	391.642426
1878.201294	332.529419
1877.396729	298.294098
1876.592041	434.939240
1875.787231	363.423920
1874.982178	372.679932
1874.177124	391.248260
1873.371826	409.810333
1872.566406	381.804626
1871.760986	350.704712
1870.955322	369.264191
1870.149536	350.586975
1869.343506	356.732147
1868.537476	381.484222
1867.731323	356.612366
1866.924927	384.456573
1866.118530	396.791748
1865.311890	331.637390
1864.505127	402.856262
1863.698242	427.575592
1862.891235	374.840271
1862.084106	365.485291
1861.276855	396.392029
1860.469482	402.518005
1859.661865	362.205322
1858.854126	352.858704
1858.046387	399.220398
1857.238403	392.964874
1856.430298	371.243011
1855.622070	383.553284
1854.813721	368.025543
1854.005249	408.161407
1853.196533	386.451508
1852.387817	426.570740
1851.578857	392.502716
1850.769775	407.886993
1849.960693	373.833527
1849.151367	373.770660
1848.341919	407.681244
1847.532227	416.876617
1846.722534	385.931946
1845.912720	354.997650
1845.102661	398.147797
1844.292603	361.050049
1843.482300	398.013824
1842.671875	416.456024
1841.861328	379.373871
1841.050659	360.807098
1840.239868	373.079590
1839.428833	388.430725
1838.617798	391.447632
1837.806519	456.098419
1836.995117	369.747284
1836.183716	418.976379
1835.372070	409.665283
1834.560303	363.401245
1833.748291	378.735809
1832.936279	434.087463
1832.124146	372.452057
1831.311768	403.165314
1830.499390	406.174500
1829.686768	393.799835
1828.874023	418.341858
1828.061157	399.818237
1827.248169	378.225830
1826.434937	418.130493
1825.621704	427.281952
1824.808228	399.548889
1823.994751	350.314606
1823.181030	402.486664
1822.367188	426.994049
1821.553223	442.278992
1820.739136	396.141479
1819.924927	389.934021
1819.110474	408.287292
1818.296021	417.426392
1817.481323	402.012054
1816.666626	383.534607
1815.851685	414.147552
1815.036621	361.934601
1814.221436	450.808594
1813.406006	401.673248
1812.590576	419.999664
1811.774902	413.798462
1810.959229	407.599365
1810.143311	416.723053
1809.327271	389.080139
1808.511108	434.961090
1807.694824	410.386993
1806.878418	388.883240
1806.061768	425.556305
1805.245117	397.935150
1804.428223	407.049561
1803.611206	431.460907
1802.794067	373.257782
1801.976807	385.430695
1801.159424	419.008667
1800.341919	385.300568
1799.524170	376.063263
1798.706421	415.739594
1797.888428	424.838562
1797.070313	418.655090
1796.252075	391.086151
1795.433716	449.062164
1794.615234	461.203644
1793.796509	400.049469
1792.977783	433.568176
1792.158813	393.808807
1791.339844	418.160400
1790.520630	445.555511
1789.701294	418.019135
1788.881714	369.136993
1788.062134	411.777466
1787.242432	433.055695
1786.422485	368.949890
1785.602417	411.568756
1784.782349	441.980621
1783.962036	435.810669
1783.141479	423.548553
1782.320923	432.616730
1781.500244	408.174957
1780.679321	447.698303
1779.858398	392.811676
1779.037231	429.279724
1778.215942	398.766907
1777.394531	438.265076
1776.572998	407.761017
1775.751221	422.904449
1774.929443	444.126678
1774.107422	413.637054
1773.285278	413.567078
1772.463013	407.416290
1771.640625	428.626678
1770.818115	431.593567
1769.995483	392.015137
1769.172607	467.907867
1768.349731	443.525909
1767.526611	455.600189
1766.703369	406.933929
1765.880005	403.828766
1765.056519	446.261505
1764.232910	409.762604
1763.409058	446.110413
1762.585083	391.418396
1761.761108	406.520782
1760.936890	436.784210
1760.112549	439.742950
1759.288086	412.378723
1758.463379	415.340546
1757.638672	445.581909
1756.813721	421.261200
1755.988647	439.370697
1755.163574	475.651825
1754.338257	414.988922
1753.512695	475.490662
1752.687134	475.410095
1751.861328	442.026215
1751.035522	432.870117
1750.209473	441.876404
1749.383301	429.697357
1748.557007	438.701111
1747.730591	450.726807
1746.903931	423.429901
1746.077271	432.430084
1745.250366	429.333313
1744.423340	462.513092
1743.596313	405.008148
1742.768921	459.334320
1741.941528	435.085052
1741.114014	483.345856
1740.286255	422.855896
1739.458374	471.102356
1738.630493	449.886841
1737.802368	425.659637
1736.973999	473.881012
1736.145630	434.568726
1735.317139	470.702911
1734.488403	434.421295
1733.659546	452.445374
1732.830566	503.637054
1732.001465	494.505737
1731.172241	391.919739
1730.342896	437.067047
1729.513306	458.089081
1728.683594	485.130402
1727.853882	457.933563
1727.023926	439.782562
1726.193726	481.871674
1725.363525	487.812225
1724.533203	475.686707
1723.702637	460.555084
1722.871948	448.438263
1722.041138	460.398682
1721.210205	469.346375
1720.379150	487.315369
1719.547974	463.171722
1718.716553	451.064636
1717.885010	453.994598
1717.053467	453.917480
1716.221558	438.812531
1715.389648	435.732910
1714.557617	447.677032
1713.725342	447.600952
1712.893066	471.553070
1712.060547	462.463867
1711.227905	456.380280
1710.395142	468.310638
1709.562256	489.241394
1708.729126	489.158234
1707.895874	468.071838
1707.062622	479.992065
1706.229126	464.913239
1705.395508	470.832031
1704.561646	437.769348
1703.727783	521.636353
1702.893677	449.610046
1702.059570	506.474487
1701.225220	443.464325
1700.390747	440.393005
1699.556030	530.178955
1698.721313	482.171112
1697.886353	467.117340
1697.051392	473.025513
1696.216187	514.851563
1695.380859	520.749573
1694.545410	526.645508
1693.709717	460.736420
1692.874023	463.649261
1692.038086	523.385864
1691.202026	493.394104
1690.365845	448.463715
1689.529541	490.236847
1688.692993	493.142120
1687.856445	493.058136
1687.019653	498.949615
1686.182739	436.133148
1685.345703	531.633423
1684.508545	462.860382
1683.671143	480.695648
1682.833740	498.524841
1681.996094	495.455231
1681.158325	510.291626
1680.320435	540.041199
1679.482422	492.218872
1678.644287	474.239197
1677.805908	498.015381
1676.967407	500.912140
1676.128784	488.902313
1675.290039	536.508606
1674.451172	530.456970
1673.612183	518.448181
1672.772949	530.276123
1671.933594	509.335724
1671.094116	476.490173
1670.254517	494.274261
1669.414795	518.006348
1668.574829	508.988403
1667.734863	532.709839
1666.894653	520.716919
1666.054321	517.653076
1665.213867	526.488281
1664.373169	478.814423
1663.532471	544.149658
1662.691528	573.786682
1661.850464	546.936462
1661.009277	534.955200
1660.167969	525.949524
1659.326538	522.888794
1658.484863	504.976837
1657.643066	546.469910
1656.801147	567.162659
1655.959106	486.904724
1655.116943	543.221680
1654.274658	557.968506
1653.432129	525.231689
1652.589478	480.638458
1651.746704	566.581909
1650.903809	578.348694
1650.060791	542.665344
1649.217529	530.713135
1648.374146	545.444336
1647.530640	518.676392
1646.687012	577.854980
1645.843262	565.904846
1644.999390	533.222351
1644.155273	553.864075
1643.311035	503.426788
1642.466675	547.753174
1641.622192	523.976990
1640.777588	541.646362
1639.932739	517.879272
1639.087769	544.419983
1638.242798	538.410339
1637.397461	544.233887
1636.552124	564.841858
1635.706665	549.961365
1634.860962	600.124023
1634.015137	552.729065
1633.169189	499.439789
1632.323120	528.901978
1631.476929	584.942322
1630.630493	528.721069
1629.783936	543.396851
1628.937256	496.060059
1628.090454	581.589966
1627.243530	543.117981
1626.396484	584.342163
1625.549194	542.932129
1624.701782	533.988586
1623.854248	566.343994
1623.006592	575.094727
1622.158691	583.842346
1621.310791	622.068970
1620.462646	551.217896
1619.614380	557.017944
1618.765991	633.536255
1617.917358	571.558105
1617.068726	533.166504
1616.219849	609.649536
1615.370850	594.821838
1614.521729	574.110840
1613.672363	585.787170
1612.822998	606.288879
1611.973389	556.160034
1611.123657	582.544067
1610.273804	623.627197
1609.423828	599.991272
1608.573608	585.185303
1607.723389	564.504150
1606.872925	570.286682
1606.022339	567.249817
1605.171509	614.170471
1604.320679	578.807861
1603.469604	558.145386
1602.618408	590.357849
1601.767090	546.207642
1600.915649	619.516418
1600.064087	557.762756
1599.212280	622.239136
1598.360352	610.394043
1597.508301	572.146301
1596.656128	583.782532
1595.803833	569.017029
1594.951294	571.851990
1594.098633	583.482178
1593.245850	627.355591
1592.392944	556.902405
1591.539795	589.043091
1590.686646	583.081909
1589.833252	594.700073
1588.979736	574.094666
1588.126099	635.495728
1587.272217	635.386658
1586.418335	573.799133
1585.564209	591.262878
1584.709961	591.161438
1583.855591	605.690125
1583.000977	590.958435
1582.146362	620.107361
1581.291504	608.302734
1580.436523	649.134705
1579.581421	587.629150
1578.726074	631.373657
1577.870605	604.962463
1577.015137	566.872314
1576.159424	595.990112
1575.303467	590.045715
1574.447510	604.546936
1573.591309	636.563232
1572.734985	627.695313
1571.878540	648.020569
1571.021973	592.457520
1570.165161	609.863770
1569.308350	647.686523
1568.451294	580.484131
1567.594116	638.714417
1566.736694	644.436646
1565.879272	597.677856
1565.021606	594.660095
1564.163818	655.762329
1563.305908	623.595581
1562.447876	594.353394
1561.589600	620.468201
1560.731201	576.674072
1559.872681	614.430786
1559.014038	582.298706
1558.155273	614.219421
1557.296265	599.561340
1556.437134	631.468079
1555.577881	602.264587
1554.718506	605.069946
1553.859009	607.874329
1552.999268	633.941589
1552.139404	628.017517
1551.279419	691.863220
1550.419312	601.643005
1549.558960	645.129272
1548.698608	621.774353
1547.838013	662.337097
1546.977173	638.987183
1546.116333	630.165222
1545.255249	653.284607
1544.394165	647.366150
1543.532837	609.522339
1542.671265	629.731323
1541.809692	612.213928
1540.947876	664.326294
1540.085938	614.903564
1539.223877	629.297546
1538.361694	652.385071
1537.499268	666.767639
1536.636841	675.348206
1535.774170	617.272034
1534.911377	698.295410
1534.048340	695.278137
1533.185303	669.089844
1532.322021	660.286560
1531.458618	665.963745
1530.594971	689.008911
1529.731323	683.101135
1528.867432	668.513428
1528.003418	668.398132
1527.139282	645.138916
1526.275024	592.962646
1525.410522	650.700439
1524.545898	670.828735
1523.681152	711.187134
1522.816284	661.925903
1521.951172	673.371704
1521.086060	647.250000
1520.220703	629.804260
1519.355225	678.800354
1518.489502	719.115417
1517.623779	661.241028
1516.757813	640.917786
1515.891724	663.899353
1515.025513	686.872925
1514.159058	652.128113
1513.292480	689.520874
1512.425781	631.711365
1511.558960	663.326599
1510.692017	654.561523
1509.824829	674.629761
1508.957520	714.868774
1508.090088	636.930298
1507.222534	662.754150
1506.354736	665.520752
1505.486938	659.644714
1504.618896	685.451233
1503.750610	647.898682
1502.882324	676.577332
1502.013794	682.217529
1501.145142	713.758301
1500.276367	713.635010
1499.407471	650.216309
1498.538330	635.721130
1497.669067	681.628357
1496.799683	661.381531
1495.930176	701.518311
1495.060547	684.149597
1494.190674	666.786865
1493.320679	663.797974
1492.450562	718.271912
1491.580200	686.549194
1490.709717	723.767761
1489.839233	729.385803
1488.968384	706.290833
1488.097534	717.651123
1487.226440	671.605286
1486.355347	743.229431
1485.483887	745.969971
1484.612427	754.446777
1483.740845	742.843811
1482.869019	742.715271
1481.997070	759.789551
1481.124878	748.191589
1480.252686	745.195984
1479.380249	759.395203
1478.507690	744.938049
1477.635010	810.696106
1476.762207	819.148254
1475.889160	830.461060
1475.015991	833.180481
1474.142700	821.585571
1473.269165	847.202881
1472.395630	918.598083
1471.521851	869.798950
1470.647949	964.050964
1469.773804	900.959839
1468.899658	1012.331909
1468.025269	943.535767
1467.150757	980.535461
1466.276001	1091.835815
1465.401245	1031.634644
1464.526245	1057.170898
1463.651123	1056.987671
1462.775879	1096.791748
1461.900391	1113.736084
1461.024780	1150.661255
1460.149048	1170.445068
1459.273193	1135.991211
1458.397217	1141.501831
1457.520996	1161.276733
1456.644653	1143.958862
1455.768188	1112.385498
1454.891479	1106.489136
1454.014648	1092.040894
1453.137695	1100.403809
1452.260620	1071.710083
1451.383423	1108.571655
1450.505981	1048.543945
1449.628418	1119.582397
1448.750732	1079.511719
1447.872803	1082.172363
1446.994873	1096.221191
1446.116699	1167.201904
1445.238403	1172.692017
1444.359863	1163.951050
1443.481201	1237.728149
1442.602417	1283.031128
1441.723511	1291.341553
1440.844482	1481.656738
1439.965210	1481.399658
1439.085815	1572.114746
1438.206299	1631.531982
1437.326538	1617.039307
1436.446777	1540.040649
1435.566772	1454.545898
1434.686646	1366.240479
1433.806274	1343.283813
1432.925781	1229.473267
1432.045166	1166.803101
1431.164429	1135.377563
1430.283569	1095.449097
1429.402466	1064.046753
1428.521240	1009.959534
1427.639893	1029.639404
1426.758301	992.592773
1425.876709	989.584778
1424.994873	944.052917
1424.112793	867.357361
1423.230713	966.396912
1422.348389	929.393188
1421.465942	937.730713
1420.583374	965.893005
1419.700562	988.381409
1418.817627	1042.008911
1417.934570	1104.110962
1417.051392	1146.377441
1416.167969	1239.570313
1415.284546	1284.628052
1414.400757	1267.430054
1413.516968	1272.866821
1412.633057	1105.787476
1411.748901	1063.181030
1410.864624	938.602905
1409.980103	989.318848
1409.095459	952.406982
1408.210815	892.902771
1407.325806	889.922302
1406.440796	836.098877
1405.555542	872.667542
1404.670166	880.986694
1403.784668	869.540649
1402.899048	824.226196
1402.013184	883.348938
1401.127197	869.086609
1400.241089	801.226013
1399.354736	815.190186
1398.468262	860.171997
1397.581665	885.399902
1396.694946	879.607239
1395.807983	820.260010
1394.920898	890.573914
1394.033691	876.329895
1393.146362	828.283325
1392.258789	842.223022
1391.371094	827.994751
1390.483276	836.297913
1389.595337	861.490173
1388.707153	875.414185
1387.818848	849.932556
1386.930420	832.901245
1386.041748	838.382813
1385.152954	888.868469
1384.264038	840.902954
1383.375000	868.875305
1382.485718	877.158020
1381.596313	851.706909
1380.706787	817.833313
1379.817139	879.509216
1378.927246	896.212524
1378.037231	834.259216
1377.147095	884.666077
1376.256714	932.247314
1375.366333	887.164978
1374.475586	867.361267
1373.584839	827.918823
1372.693970	931.596985
1371.802856	875.323914
1370.911499	900.416504
1370.020142	903.063904
1369.128540	897.298157
1368.236816	891.534424
1367.344971	888.575745
1366.453003	885.618042
1365.560791	874.255066
1364.668457	871.300842
1363.775879	932.773376
1362.883301	803.781433
1361.990479	884.845215
1361.097534	837.096619
1360.204346	870.540405
1359.311035	853.596313
1358.417603	856.245361
1357.524048	828.118835
1356.630249	780.421631
1355.736450	827.829529
1354.842285	813.703735
1353.948120	780.012634
1353.053711	805.033630
1352.159180	824.456360
1351.264526	746.072449
1350.369751	765.498596
1349.474731	748.604980
1348.579590	809.916016
1347.684204	779.058899
1346.788818	801.257385
1345.893188	720.168152
1344.997314	733.996582
1344.101440	747.820068
1343.205322	800.697144
1342.309082	769.873718
1341.412720	825.517273
1340.516113	783.546570
1339.619385	755.530212
1338.722534	788.847412
1337.825439	769.200684
1336.928223	791.357849
1336.030884	702.067932
1335.133423	760.440491
1334.235718	768.662476
1333.337891	732.329163
1332.439941	693.224548
1331.541870	659.700623
1330.643555	756.992249
1329.745117	667.817444
1328.846436	720.560181
1327.947754	712.089233
1327.048828	700.840088
1326.149780	684.033630
1325.250488	670.013184
1324.351074	678.234802
1323.451538	725.361816
1322.551880	725.234741
1321.651978	716.773132
1320.751953	652.760437
1319.851807	688.749878
1318.951416	666.415405
1318.050903	652.417419
1317.150269	677.284912
1316.249512	638.312439
1315.348511	663.173645
1314.447388	657.508850
1313.546021	646.298340
1312.644653	657.278381
1311.743042	646.071777
1310.841309	695.860901
1309.939331	695.738892
1309.037231	662.360352
1308.135010	642.847961
1307.232666	662.128113
1306.330078	717.410461
1305.427368	678.512512
1304.524536	719.927795
1303.621460	733.643921
1302.718262	683.691528
1301.814941	730.619019
1300.911499	727.723877
1300.007813	733.129211
1299.104004	763.427063
1298.199951	896.039734
1297.295898	951.183838
1296.391602	1188.771118
1295.487061	1503.669800
1294.582520	1882.020996
1293.677734	2083.398926
1292.772827	1878.597656
1291.867676	1566.143921
1290.962402	1143.332886
1290.057007	941.565369
1289.151489	731.586548
1288.245728	679.013916
1287.339844	640.258423
1286.433838	593.238708
1285.527588	598.652039
1284.621216	565.447510
1283.714722	559.832581
1282.808105	521.131897
1281.901245	529.310852
1280.994263	529.217834
1280.087036	523.613098
1279.179810	531.787231
1278.272217	520.674194
1277.364624	517.828308
1276.456787	545.276489
1275.548828	509.385986
1274.640747	509.296448
1273.732544	492.692078
1272.824097	542.141235
1271.915405	489.767365
1271.006714	544.701599
1270.097778	473.091919
1269.188721	536.259888
1268.279541	508.669922
1267.370117	497.584106
1266.460571	549.719971
1265.550781	489.164734
1264.640991	483.583435
1263.730957	499.981232
1262.820679	519.119934
1261.910400	494.312958
1260.999878	502.463074
1260.089233	472.177277
1259.178345	499.541504
1258.267334	504.942078
1257.356201	469.184235
1256.444824	449.898651
1255.533447	469.019073
1254.621704	457.967224
1253.709961	457.886597
1252.797974	474.254089
1251.885864	460.466217
1250.973633	438.462036
1250.061157	474.003571
1249.148560	460.222992
1248.235840	468.358734
1247.322876	446.368591
1246.409790	449.027924
1245.496582	451.686310
1244.583130	462.554779
1243.669556	465.209808
1242.755859	421.351074
1241.841919	443.161346
1240.927856	464.963898
1240.013672	475.820343
1239.099365	429.256500
1238.184814	470.185364
1237.270142	429.105164
1236.355225	464.554260
1235.440186	434.418243
1234.525024	461.658752
1233.609741	423.340149
1232.694214	423.265503
1231.778564	412.269806
1230.862671	431.305573
1229.946777	466.710419
1229.030640	439.339905
1228.114258	474.730774
1227.197876	403.722748
1226.281128	441.834778
1225.364380	477.206451
1224.447388	400.782684
1223.530273	395.260101
1222.613037	430.621185
1221.695557	438.720093
1220.777954	427.744720
1219.860229	435.841248
1218.942261	433.040771
1218.024170	432.964325
1217.105957	408.384796
1216.187500	413.756866
1215.268921	402.797394
1214.350220	421.774109
1213.431274	397.213837
1212.512207	413.464661
1211.593018	416.111328
1210.673706	386.126587
1209.754150	383.339661
1208.834351	383.271942
1207.914551	388.639740
1206.994507	372.267395
1206.074219	388.502411
1205.153931	404.731689
1204.233398	393.796814
1203.312744	377.435028
1202.391846	439.810577
1201.470825	380.016022
1200.549683	382.662781
1199.628296	423.296722
1198.706787	387.953400
1197.785156	390.597290
1196.863281	409.512238
1195.941284	382.324585
1195.019165	412.078461
1194.096802	409.295013
1193.174438	376.701599
1192.251709	417.279022
1191.328979	398.241333
1190.406006	400.879547
1189.482788	384.559601
1188.559570	384.491577
1187.636108	416.910034
1186.712402	376.235321
1185.788696	384.287476
1184.864746	397.748322
1183.940552	386.856750
1183.016357	384.083466
1182.091919	411.058838
1181.167236	397.466766
1180.242554	373.066010
1179.317505	397.326050
1178.392456	397.255676
1177.467163	391.781464
1176.541748	413.323761
1175.616211	375.436798
1174.690430	421.278900
1173.764526	413.104187
1172.838501	402.232819
1171.912231	461.541107
1170.985840	429.076233
1170.059204	507.245514
1169.132446	569.201294
1168.205566	525.945862
1167.278564	517.762634
1166.351318	439.480988
1165.423828	455.577454
1164.496338	447.410950
1163.568604	385.351959
1162.640747	358.340729
1161.712646	393.296753
1160.784424	412.080383
1159.856079	377.000153
1158.927490	376.933289
1157.998779	379.558350
1157.069946	349.885345
1156.140869	403.642242
1155.211670	379.356415
1154.282349	341.629211
1153.352783	355.016174
1152.423096	360.331268
1151.493164	371.021576
1150.563232	368.267670
1149.632935	368.202332
1148.702637	373.511230
1147.772095	341.205078
1146.841431	392.181885
1145.910522	351.826782
1144.979492	367.875671
1144.048340	354.386627
1143.116943	340.902344
1142.185425	356.944580
1141.253784	364.931152
1140.321899	391.694733
1139.389893	399.672272
1138.457764	394.237518
1137.525391	442.432892
1136.592896	477.206451
1135.660278	426.192963
1134.727417	468.996979
1133.794434	535.901306
1132.861206	653.683411
1131.927856	728.566772
1130.994385	905.190491
1130.060669	1234.374756
1129.126831	1311.791992
1128.192871	1464.127930
1127.258667	1343.439819
1126.324341	1246.875854
1125.389893	1013.909668
1124.455200	786.375854
1123.520386	681.939392
1122.585327	609.625671
1121.650146	529.317627
1120.714844	457.056610
1119.779297	505.078003
1118.843628	430.175110
1117.907837	435.441406
1116.971802	422.009216
1116.035645	440.627441
1115.099365	373.799194
1114.162842	349.707001
1113.226196	381.673309
1112.289307	349.582550
1111.352417	344.184143
1110.415161	389.472412
1109.477905	352.063080
1108.540405	362.667084
1107.602661	359.936310
1106.664917	354.540802
1105.726807	381.130127
1104.788696	354.414551
1103.850342	370.337219
1102.911865	346.296875
1101.973145	386.185394
1101.034302	359.487885
1100.095337	346.111847
1099.156128	335.402496
1098.216797	391.233215
1097.277344	356.570831
1096.337646	345.865265
1095.397827	332.503510
1094.457764	374.997131
1093.517700	369.612122
1092.577271	369.546265
1091.636841	358.847870
1090.696167	398.648773
1089.755249	358.719940
1088.814209	371.939545
1087.873047	355.935822
1086.931763	358.528107
1085.990234	369.085327
1085.048584	384.948425
1084.106689	363.645020
1083.164673	374.195648
1082.222412	384.742493
1081.280151	424.467712
1080.337524	342.166046
1079.394897	392.492554
1078.452026	403.028534
1077.509033	410.909729
1076.565796	421.438629
1075.622437	365.711639
1074.678955	397.441711
1073.735229	389.423370
1072.791382	381.407867
1071.847290	407.821716
1070.903076	341.555908
1069.958740	349.436676
1069.014160	452.598511
1068.069458	412.823151
1067.124512	449.791046
1066.179565	563.461060
1065.234253	610.968384
1064.288940	814.479004
1063.343384	938.598694
1062.397583	1128.760742
1061.451660	996.409302
1060.505615	1035.869141
1059.559448	914.149719
1058.613037	784.549011
1057.666382	681.405640
1056.719727	567.736511
1055.772827	462.028534
1054.825684	448.747498
1053.878418	390.604462
1052.931030	358.869690
1051.983398	387.826569
1051.035645	340.276733
1050.087769	337.578583
1049.139648	363.886810
1048.191406	316.366730
1047.242920	287.315063
1046.294312	313.618134
1045.345581	281.942352
1044.396606	337.216492
1043.447510	313.449890
1042.498291	313.393799
1041.548828	297.539185
1040.599121	313.281677
1039.649414	318.489899
1038.699341	318.432922
1037.749268	318.375916
1036.798950	289.380859
1035.848511	294.589600
1034.897827	286.647491
1033.947021	283.966827
1032.996094	281.287140
1032.044922	304.892212
1031.093506	286.442261
1030.142090	281.136078
1029.190430	283.712708
1028.238525	291.541382
1027.286499	257.350800
1026.334351	309.815887
1025.381958	270.384064
1024.429443	283.458710
1023.476807	259.790588
1022.523926	283.357147
1021.570923	301.668823
1020.617737	275.387390
1019.664368	277.960327
1018.710815	283.154083
1017.757080	285.724670
1016.803223	283.052612
1015.849121	288.242645
1014.894897	285.571045
1013.940491	251.467026
1012.985962	288.087616
1012.031189	280.180450
1011.076294	274.894135
1010.121216	285.315094
1009.165955	290.498138
1008.210510	298.295929
1007.254944	300.858582
1006.299133	277.263367
1005.343201	282.444092
1004.387085	274.549164
1003.430786	193.457062
1002.474365	295.361145
1001.517700	303.148193
1000.560913	310.932434
999.603943	282.140137
998.646790	258.582031
997.689514	300.319153
996.731995	292.432220
995.774353	263.663849
994.816528	279.276917
993.858521	258.350006
992.900330	258.303589
991.942017	266.083191
990.983459	281.684540
990.024780	263.379913
989.065918	276.368866
988.106873	232.003876
987.147705	247.600098
986.188293	276.219940
985.228760	252.721893
984.269043	268.305969
983.309143	234.399963
982.349060	263.001587
981.388794	257.747284
980.428406	257.700958
979.467834	262.859802
978.507019	307.048309
977.546082	236.748932
976.585022	278.325073
975.623718	244.465912
974.662292	267.824066
973.700623	265.176117
972.738831	270.327026
971.776855	220.900635
970.814758	239.049438
969.852417	220.821167
968.889954	249.353165
967.927246	236.323486
966.964417	238.877472
966.001404	249.218597
965.038208	256.960419
964.074890	262.104370
963.111328	254.273331
962.147644	251.633408
961.183777	259.369171
960.219727	261.915710
959.255493	254.090302
958.291077	261.821411
957.326538	259.182465
956.361755	277.275299
955.396851	269.452698
954.431763	261.632904
953.466492	261.585785
952.501038	233.054245
951.535461	279.614716
950.569641	251.090210
949.603699	287.278259
948.637573	274.288391
947.671265	250.954529
946.704773	294.883087
945.738098	245.691635
944.771240	271.504974
943.804260	243.017792
942.837097	276.576782
941.869751	268.773834
940.902222	240.302490
939.934509	273.843781
938.966614	278.960358
937.998535	253.085052
937.030334	265.949585
936.061951	286.554169
935.093323	255.529251
934.124573	273.547638
933.155640	283.819000
932.186584	286.347504
931.217285	242.448730
930.247864	265.613983
929.278198	262.987732
928.308411	291.296600
927.338440	298.976166
926.368286	273.153046
925.397949	265.374420
924.427429	285.934387
923.456787	273.005188
922.485901	280.681061
921.514893	288.354156
920.543701	278.005615
919.572327	272.808075
918.600769	262.466034
917.629028	275.282288
916.657104	275.232574
915.685059	270.039276
914.712769	277.704498
913.740356	285.366974
912.767761	293.026642
911.794983	280.123993
910.822021	287.781799
909.848877	259.470642
908.875549	259.423737
907.902039	264.513031
906.928406	236.221375
905.954590	290.089020
904.980530	266.936340
904.006348	259.189392
903.031982	241.182159
902.057434	277.052795
901.082703	269.308197
900.107849	269.259491
899.132751	266.646912
898.157532	294.796600
897.182068	289.617310
896.206482	281.877380
895.230713	284.388458
894.254761	261.282654
893.278625	309.896881
892.302307	268.870117
891.325806	335.386780
890.349182	268.772827
889.372314	258.487091
888.395325	278.910828
887.418091	291.652100
886.440735	266.020416
885.463196	245.512863
884.485474	309.392487
883.507568	288.884460
882.529480	258.159729
881.551270	286.224304
880.572815	319.388916
879.594238	301.448517
878.615417	260.526947
877.636475	291.124451
876.657349	296.178223
875.677979	296.124573
874.698486	283.309265
873.718811	311.328522
872.739014	290.860840
871.758972	382.642273
870.778748	344.315643
869.798401	318.753021
868.817810	283.001373
867.837097	272.753662
866.856140	275.252869
865.875061	277.751160
864.893799	292.987061
863.912354	264.914185
862.930725	295.427612
861.948914	277.549774
860.966919	287.682892
859.984741	269.812897
859.002441	272.308899
858.019897	279.892944
857.037231	287.474213
856.054321	261.986481
855.071289	267.025146
854.088074	272.061981
853.104614	297.434357
852.121033	266.879822
851.137268	254.125137
850.153320	266.782959
849.169189	307.379791
848.184937	279.385468
847.200439	294.571167
846.215759	264.050354
845.230896	274.156342
844.245911	289.334717
843.260681	279.131927
842.275330	319.674866
841.289795	312.006897
840.304016	273.907501
839.318115	316.964996
838.332031	289.019562
837.345764	250.945068
836.359314	304.120575
835.372681	298.997559
834.385864	281.209320
833.398865	278.625275
832.411743	250.717163
831.424377	278.523987
830.436829	245.562881
829.449158	250.580475
828.461243	260.657532
827.473206	263.140350
826.484924	295.979065
825.496521	283.278870
824.507935	313.573151
823.519104	305.931061
822.530151	265.429077
821.541016	242.633881
820.551697	237.535797
819.562195	255.178207
818.572510	295.548706
817.582642	300.546112
816.592590	247.463531
815.602356	310.535492
814.611938	320.575836
813.621399	297.803650
812.630615	239.713547
811.639648	267.421173
810.648560	274.939636
809.657227	277.411499
808.665771	274.839539
807.674072	284.873535
806.682251	262.136749
805.690186	279.729614
804.697998	274.639404
803.705566	312.376923
802.713013	279.576813
801.720276	266.934631
800.727356	266.885986
799.734253	294.528046
798.740906	284.406891
797.747437	294.420746
796.753784	324.558594
795.759949	327.014954
794.765930	284.199646
793.771729	271.574921
792.777344	284.096069
791.782776	286.557922
790.788025	286.505707
789.793091	278.915222
788.798035	263.790619
787.802734	273.789856
786.807251	298.853668
785.811584	281.222748
784.815796	301.255127
783.819763	276.100189
782.823547	278.559357
781.827148	275.999451
780.830627	285.983612
779.833862	258.341553
778.836975	283.371552
777.839844	293.348877
776.842529	263.213776
775.845093	265.672058
774.847412	255.600052
773.849609	270.585938
772.851563	250.496811
771.853394	275.496185
770.854980	265.429688
769.856445	270.388397
768.857666	257.823334
767.858765	280.300385
766.859680	272.742523
765.860352	277.696259
764.860901	252.632431
763.861206	282.596527
762.861389	260.041321
761.861389	299.992859
760.861145	254.947357
759.860779	282.390076
758.860168	284.837036
757.859436	287.283112
756.858521	282.235291
755.857361	264.703278
754.856079	274.641876
753.854614	274.591675
752.852905	287.020630
751.851074	252.032913
750.848999	271.946167
749.846802	276.885376
748.844421	279.328766
747.841797	304.213165
746.839050	259.281830
745.836121	261.727051
744.832947	296.569733
743.829651	289.040314
742.826111	279.022339
741.822449	296.406982
740.818604	286.391327
739.814514	263.929779
738.810303	266.370941
737.805847	266.322174
736.801270	286.181732
735.796448	238.855804
734.791504	303.490356
733.786316	295.973267
732.781006	290.945648
731.775452	303.323700
730.769775	300.782349
729.763855	300.727264
728.757751	273.338348
727.751526	288.194916
726.745056	265.786285
725.738403	295.539948
724.731628	265.688904
723.724609	260.674988
722.717407	265.591553
721.710083	282.914856
720.702515	302.713043
719.694763	337.388763
718.686829	280.278992
717.678711	287.667297
716.670410	247.943604
715.661987	307.393707
714.653320	304.858826
713.644470	240.373032
712.635437	250.239441
711.626221	277.442352
710.616821	287.298309
709.607178	294.674377
708.597412	279.765533
707.587463	282.189575
706.577332	254.913971
705.567017	282.086029
704.556458	249.872482
703.545776	262.194305
702.534912	309.134644
701.523804	264.570709
700.512573	284.299500
699.501099	299.077606
698.489502	284.195160
697.477661	274.259735
696.465698	311.264709
695.453491	286.508575
694.441101	303.742096
693.428589	288.872345
692.415833	269.070984
691.402893	291.234344
690.389771	276.375061
689.376465	291.127380
688.362976	305.874268
687.349304	266.357697
686.335449	263.842926
685.321411	285.982788
684.307190	261.281067
683.292725	290.806610
682.278137	261.185059
681.263367	278.381958
680.248352	273.404572
679.233215	305.368805
678.217834	364.405426
677.202332	310.180023
676.186584	268.281006
675.170654	255.927475
674.154541	278.023926
673.138306	270.592987
672.121826	245.948380
671.105164	295.083771
670.088318	277.819427
669.071289	250.728943
668.054016	312.124695
667.036621	285.037811
666.019043	282.528595
665.001282	292.301880
663.983276	282.424622
662.965149	292.194305
661.946777	279.865723
660.928223	279.814209
659.909546	284.670837
658.890625	282.164825
657.871521	284.566010
656.852234	282.060913
655.832764	291.817993
654.813110	252.535461
653.793274	269.648407
652.773254	281.853210
651.752991	257.296844
650.732605	252.349457
649.711975	284.147034
648.691223	286.543793
647.670227	291.388275
646.649048	257.059937
645.627747	296.176392
644.606201	330.383820
643.584473	291.173553
642.562561	315.583740
641.540466	303.295898
640.518127	291.012573
639.495667	293.403961
638.473022	286.016113
637.450134	317.737091
636.427063	256.586487
635.403870	300.517303
634.380432	295.576324
633.356812	275.983185
632.333008	295.467316
631.309021	310.061371
630.284851	297.799286
629.260498	280.660645
628.235901	300.129486
627.211182	265.919342
626.186218	270.748627
625.161133	292.647186
624.135803	236.512817
623.110291	280.350037
622.084595	304.672058
621.058716	268.061920
620.032654	282.631287
619.006409	328.863617
617.979919	314.189453
616.953308	294.650391
615.926453	304.334686
614.899414	287.238892
613.872253	272.583191
612.844849	335.799377
611.817261	304.109924
610.789490	274.864563
609.761475	299.133606
608.733337	313.667511
607.705017	272.281158
606.676453	320.843506
605.647705	323.214386
604.618774	301.287048
603.589722	298.802063
602.560425	298.746826
601.530884	325.403870
600.501221	303.492249
599.471375	322.856049
598.441284	337.358612
597.411011	322.736664
596.380615	310.546265
595.349976	305.637451
594.319153	303.155670
593.288147	298.250000
592.256897	320.013947
591.225525	310.259155
590.193970	336.859711
589.162170	336.797394
588.130188	314.932068
587.098022	290.652740
586.065674	293.020599
585.033142	300.229980
584.000427	292.912140
582.967468	312.220398
581.934387	280.704376
580.901062	287.910645
579.867554	328.979797
578.833862	282.966980
577.799988	328.857971
576.765930	287.697449
575.731628	282.809784
574.697205	299.674530
573.662537	316.532990
572.627747	304.395172
571.592712	275.354126
570.557434	304.282379
569.522034	304.226013
568.486450	296.927490
567.450623	277.563690
566.414673	313.709503
565.378479	289.524323
564.342102	299.119659
563.305542	291.828796
562.268799	325.533752
561.231812	342.349792
560.194702	337.465363
559.157349	313.302582
558.119812	303.606201
557.082092	354.141541
556.044189	349.258484
555.006042	327.519592
553.967773	329.866638
552.929260	308.139374
551.890625	293.640869
550.851746	300.805695
549.812683	327.215881
548.773376	331.966248
547.733948	307.853577
546.694275	336.652344
545.654419	324.568787
544.614441	319.701019
543.574158	319.641663
542.533752	341.208191
541.493164	353.156952
540.452332	317.061646
539.411316	326.608917
538.370178	304.938446
537.328735	297.679871
536.287170	340.828156
535.245422	316.767303
534.203430	340.701538
533.161255	295.059875
532.118896	333.379700
531.076355	285.358337
530.033630	299.690460
528.990723	328.399689
527.947571	357.098267
526.904236	340.258575
525.860718	325.820862
524.817017	335.341492
523.773132	332.884277
522.729004	332.822388
521.684692	323.184662
520.640198	335.092133
519.595520	366.139709
518.550659	394.783112
517.505615	344.473907
516.460327	392.244537
515.414856	344.345764
514.369202	337.109161
513.323364	310.752014
512.277283	317.864075
511.231079	327.362946
510.184631	360.748962
509.138000	327.241119
508.091187	317.627502
507.044159	308.017456
505.996948	307.960114
504.949554	312.676453
503.901947	338.868622
502.854126	341.191467
501.806152	293.417725
500.757965	343.449463
499.709564	333.847015
