#Wave		#Intensity
3200.600830	46.308376
3200.007080	63.147785
3199.413086	67.347458
3198.819092	29.460058
3198.224854	37.871494
3197.630615	63.109615
3197.036377	58.893402
3196.442139	29.442251
3195.847656	54.670200
3195.252930	33.638115
3194.658447	46.245411
3194.063721	54.645405
3193.468750	37.825714
3192.873779	25.213329
3192.278809	50.419033
3191.683838	58.813313
3191.088623	58.804417
3190.493164	25.198082
3189.897949	50.388542
3189.302490	54.579330
3188.706787	79.757721
3188.111328	75.548515
3187.515381	83.930099
3186.919678	41.958702
3186.323730	67.123764
3185.727783	33.556805
3185.131592	62.909489
3184.535400	50.319977
3183.939209	58.697758
3183.342773	67.072998
3182.746338	25.148569
3182.149902	62.861908
3181.553223	50.281914
3180.956543	50.274303
3180.359619	79.588936
3179.762695	50.259087
3179.165771	54.439102
3178.568604	29.308924
3177.971436	62.795330
3177.374268	58.600101
3176.776855	54.406143
3176.179443	54.397903
3175.581787	25.102922
3174.984131	54.381432
3174.386475	58.555752
3173.788574	25.091520
3173.190674	37.631580
3172.592773	58.529152
3171.994629	16.720081
3171.396484	41.793873
3170.798340	58.502560
3170.199951	75.206184
3169.601563	54.307346
3169.002930	71.006538
3168.404297	45.938450
3167.805664	58.458260
3167.206787	37.574615
3166.607910	50.091896
3166.008789	25.042152
3165.409912	70.942017
3164.810547	41.724270
3164.211426	41.717949
3163.612061	75.080925
3163.012695	62.557957
3162.413086	20.849491
3161.813477	66.708260
3161.213623	58.360878
3160.614014	54.184029
3160.013916	29.171593
3159.414063	70.834557
3158.813965	70.823814
3158.213867	54.151176
3157.613525	49.978123
3157.013184	33.313694
3156.412598	49.962967
3155.812256	58.281288
3155.211426	62.434765
3154.610840	29.131805
3154.010010	70.737938
3153.409180	91.529327
3152.808105	37.438137
3152.207031	83.183235
3151.605957	58.219433
3151.004639	33.263199
3150.403320	45.729961
3149.801758	49.879662
3149.200195	33.248062
3148.598633	74.796791
3147.996826	16.618986
3147.395020	49.849392
3146.793213	41.534859
3146.191162	78.904251
3145.589111	37.370026
3144.986816	41.515949
3144.384766	49.811577
3143.782227	33.202675
3143.179932	16.598818
3142.577393	37.341671
3141.974609	53.929779
3141.371826	66.365036
3140.769043	62.207775
3140.166260	58.051773
3139.563232	33.167404
3138.960205	49.743553
3138.356934	37.301998
3137.753662	37.296333
3137.150391	62.151115
3136.546875	24.856670
3135.943359	57.990089
3135.339600	41.415199
3134.735840	37.268017
3134.132080	45.542881
3133.528076	37.256695
3132.924072	49.668049
3132.320068	41.383751
3131.715820	70.341690
3131.111572	49.645412
3130.507080	62.047337
3129.902588	90.988930
3129.298096	70.298943
3128.693604	45.480637
3128.088867	70.277573
3127.483887	62.000202
3126.878906	53.725338
3126.273926	78.509712
3125.668945	45.446083
3125.063721	33.046673
3124.458252	33.041649
3123.853027	82.591560
3123.247559	61.934254
3122.641846	70.181480
3122.036133	66.043114
3121.430420	20.635336
3120.824707	33.011517
3120.218750	61.887180
3119.612549	20.625921
3119.006592	53.619240
3118.400391	49.487156
3117.793945	53.602932
3117.187500	45.349426
3116.581055	53.586624
3115.974609	53.578472
3115.367920	61.811909
3114.760986	41.201672
3114.154297	90.629883
3113.547363	53.545872
3112.940186	82.365730
3112.333008	53.529579
3111.725830	57.638466
3111.118408	74.095322
3110.510986	45.273582
3109.903564	49.381844
3109.295898	37.030746
3108.688232	65.822418
3108.080566	24.679649
3107.472656	61.689732
3106.864746	32.896179
3106.256592	16.445585
3105.648438	36.996937
3105.040039	28.771013
3104.431885	45.204708
3103.823486	49.306717
3103.214844	65.732277
3102.606201	78.045189
3101.997559	86.247337
3101.388672	53.383076
3100.779785	86.221069
3100.170898	57.471958
3099.561768	57.463203
3098.952637	45.142780
3098.343262	49.239166
3097.733887	32.821110
3097.124512	45.122150
3096.514893	65.622223
3095.905273	36.906876
3095.295410	53.301807
3094.685791	53.293686
3094.075684	57.384453
3093.465820	61.473972
3092.855713	40.976402
3092.245361	28.679110
3091.635254	40.963913
3091.024658	40.957668
3090.414307	49.141708
3089.803711	36.850662
3089.193115	4.093894
3088.582275	53.212509
3087.971436	77.760269
3087.360596	49.104259
3086.749512	77.736557
3086.138428	40.907738
3085.527100	28.631050
3084.915771	61.342896
3084.304443	40.889027
3083.692871	65.412460
3083.081299	40.876553
3082.469482	20.435160
3081.857910	65.382538
3081.245850	53.115208
3080.634033	57.192265
3080.021973	81.690773
3079.409668	44.923069
3078.797607	16.333170
3078.185059	77.570717
3077.572754	53.066601
3076.960205	53.058502
3076.347656	93.858414
3075.734863	97.924263
3075.122070	32.636440
3074.509033	40.789322
3073.895996	61.174648
3073.282959	73.398369
3072.669922	61.155972
3072.056641	73.375961
3071.443115	81.516403
3070.829834	65.203163
3070.216064	28.522030
3069.602539	16.295815
3068.988770	61.099972
3068.375000	40.727093
3067.760986	48.865051
3067.146973	40.714657
3066.532715	44.779282
3065.918701	69.193771
3065.304199	44.765602
3064.689941	44.758766
3064.075439	52.888645
3063.460693	28.474150
3062.846191	24.402685
3062.231445	44.731422
3061.616455	32.526974
3061.001465	32.522003
3060.386475	56.904808
3059.771240	69.088142
3059.156006	52.824032
3058.540771	52.815960
3057.925293	64.994324
3057.309814	73.107437
3056.694092	40.609035
3056.078369	48.723396
3055.462646	44.656284
3054.846680	44.649460
3054.230713	56.817898
3053.614502	68.982613
3052.998291	44.628983
3052.382080	28.395920
3051.765625	52.727219
3051.149170	48.663834
3050.532715	36.492294
3049.916016	36.486713
3049.299316	40.534595
3048.682373	52.686913
3048.065430	48.626637
3047.448486	56.722397
3046.831299	36.458820
3046.214111	36.453243
3045.596680	36.447666
3044.979248	56.687698
3044.361816	36.436516
3043.744141	64.766113
3043.126465	80.945259
3042.508545	64.746300
3041.890869	72.828438
3041.272705	48.544865
3040.654785	64.716576
3040.036621	52.574173
3039.418213	40.435482
3038.799805	36.386364
3038.181396	24.253862
3037.562988	20.208458
3036.944336	60.616096
3036.325439	56.566360
3035.706543	48.478027
3035.087646	40.392174
3034.468750	88.849174
3033.849609	4.037981
3033.230469	32.298897
3032.611084	60.551159
3031.991699	44.397381
3031.372070	52.461597
3030.752441	20.174448
3030.132813	68.582611
3029.513184	36.302883
3028.893066	76.627678
3028.273193	56.453850
3027.653076	24.190800
3027.032959	24.187094
3026.412598	68.519600
3025.792480	44.329418
3025.171875	36.263969
3024.551270	20.143562
3023.930664	88.618088
3023.310059	64.439644
3022.689209	68.456627
3022.068115	28.183702
3021.447266	36.230637
3020.826172	64.400146
3020.204834	40.243923
3019.583496	72.427956
3018.962158	72.416855
3018.340576	28.157791
3017.718994	68.372726
3017.097412	20.106541
3016.475586	60.310375
3015.853760	64.321205
3015.231689	64.311340
3014.609619	40.188423
3013.987549	44.200485
3013.365234	68.299362
3012.742920	28.118956
3012.120361	60.245663
3011.497803	12.047284
3010.875244	40.151455
3010.252441	80.290588
3009.629639	48.166962
3009.006836	52.172871
3008.383789	72.228271
3007.760498	64.193062
3007.137451	52.148857
3006.514160	84.227539
3005.890625	52.132854
3005.267090	36.086437
3004.643555	32.071911
3004.019775	44.092110
3003.395996	48.093098
3002.772217	56.100002
3002.148193	44.071808
3001.524170	52.076866
3000.899902	72.095360
3000.275635	48.056194
2999.651367	48.048817
2999.026855	48.041439
2998.402344	32.022709
2997.777588	36.020016
2997.152832	44.017704
2996.528076	52.012932
2995.903076	36.003422
2995.278076	59.996490
2994.653076	63.986427
2994.027832	27.989761
2993.402344	27.985462
2992.777100	39.973091
2992.151367	27.976864
2991.525879	51.949051
2990.900146	51.941071
2990.274414	51.933090
2989.648438	71.896309
2989.022461	19.968126
2988.396240	35.937107
2987.770264	87.832756
2987.143799	27.942492
2986.517578	67.849907
2985.891113	43.896133
2985.264404	79.798882
2984.637695	51.861301
2984.010986	67.808197
2983.384033	39.881042
2982.757080	59.812370
2982.130127	59.803173
2981.502930	51.821445
2980.875732	35.870869
2980.248291	59.775589
2979.620850	27.890985
2978.993408	27.886696
2978.365723	51.781616
2977.738037	43.808475
2977.110107	59.729641
2976.482178	47.776363
2975.854248	19.903755
2975.226074	47.761665
2974.597900	39.795265
2973.969482	67.641541
2973.341309	51.717926
2972.712646	51.709969
2972.083984	63.633244
2971.455322	55.670521
2970.826660	51.686100
2970.197754	71.554359
2969.568604	39.746304
2968.939697	35.766167
2968.310547	87.414948
2967.681152	55.619133
2967.051758	55.610573
2966.422363	35.744152
2965.792725	35.738647
2965.163086	99.258736
2964.533203	47.636860
2963.903564	31.753016
2963.273438	47.622189
2962.643311	59.518570
2962.013184	55.542114
2961.383057	83.300339
2960.752686	67.423225
2960.122314	55.516453
2959.491699	39.648502
2958.861084	59.463593
2958.230225	63.418064
2957.599609	75.297348
2956.968506	31.699263
2956.337646	55.465164
2955.706299	39.611870
2955.075195	47.526920
2954.443848	55.439529
2953.812500	47.512276
2953.180908	79.174919
2952.549316	39.581360
2951.917725	43.532787
2951.285889	39.569160
2950.653809	59.344593
2950.021973	51.424053
2949.389893	55.371212
2948.757568	47.453724
2948.125244	67.215744
2947.492920	63.252121
2946.860352	67.195015
2946.227783	35.568348
2945.595215	67.174301
2944.962402	63.213120
2944.329590	67.153580
2943.696533	75.042427
2943.063477	71.081863
2942.430420	59.225750
2941.797119	75.007713
2941.163574	106.573471
2940.530273	59.198349
2939.896729	55.243271
2939.262939	90.742798
2938.629150	27.613113
2937.995361	86.770676
2937.361328	47.322159
2936.727295	55.200665
2936.093262	74.903633
2935.458984	82.775444
2934.824707	51.234035
2934.190186	98.511787
2933.555664	63.037811
2932.921143	78.785103
2932.286377	90.588882
2931.651367	98.450974
2931.016602	90.560913
2930.381592	86.610115
2929.746338	90.532959
2929.111084	47.227295
2928.475830	90.505005
2927.840332	59.015888
2927.204834	86.543266
2926.569336	94.396263
2925.933594	86.516541
2925.297607	94.367104
2924.661865	78.627106
2924.025879	70.753471
2923.389648	106.113808
2922.753418	121.815552
2922.117188	98.223175
2921.480713	106.064636
2920.844238	54.987984
2920.207764	62.833698
2919.571045	98.162483
2918.934082	74.591965
2918.297363	82.431007
2917.660156	82.418266
2917.023193	94.177750
2916.385986	102.010124
2915.748779	58.842899
2915.111328	105.900848
2914.473877	78.432945
2913.836182	74.499786
2913.198486	105.851746
2912.560791	101.915550
2911.922852	90.142128
2911.284912	86.209572
2910.646729	97.950279
2910.008545	78.348106
2909.370361	66.585594
2908.731934	58.742905
2908.093506	78.311760
2907.455078	74.384666
2906.816406	90.030670
2906.177490	97.844292
2905.538574	86.089653
2904.899658	62.600971
2904.260498	97.798889
2903.621338	129.074554
2902.982178	74.304161
2902.342773	74.292664
2901.703369	132.924194
2901.063721	97.723251
2900.424072	93.799805
2899.784424	97.693008
2899.144531	121.120583
2898.504639	128.914856
2897.864502	113.271278
2897.224365	105.443146
2896.583984	93.712730
2895.943848	78.081856
2895.303223	89.780235
2894.662842	124.892288
2894.021973	74.143318
2893.381348	105.345238
2892.740479	101.427856
2892.099609	128.715424
2891.458496	93.596718
2890.817383	89.682968
2890.176025	116.959663
2889.534668	144.227905
2888.893311	140.308121
2888.251709	109.111641
2887.610107	97.406013
2886.968262	128.556015
2886.326416	136.326172
2885.684570	112.938469
2885.042480	144.071579
2884.400391	132.369598
2883.758057	151.812180
2883.115723	151.788651
2882.473389	124.525238
2881.830811	132.287567
2881.188232	140.047470
2880.545410	202.259445
2879.902588	194.450089
2879.259766	178.866348
2878.616699	194.389816
2877.973633	178.810898
2877.330322	190.442947
2876.687012	190.413422
2876.043457	190.383911
2875.399902	170.930466
2874.756348	120.409615
2874.112549	124.274521
2873.468750	124.255249
2872.824707	112.588852
2872.180664	178.561523
2871.536621	128.078613
2870.892334	85.372498
2870.248047	85.359253
2869.603760	77.587288
2868.958984	116.362869
2868.314453	89.197693
2867.669678	131.837006
2867.024902	104.677849
2866.379883	127.919739
2865.734863	127.899887
2865.089844	135.630341
2864.444580	92.989235
2863.799316	127.840355
2863.153809	104.580421
2862.508301	120.055176
2861.862549	120.036545
2861.216797	147.118729
2860.571045	116.128334
2859.925049	112.239960
2859.279053	170.268677
2858.632813	131.550827
2857.986572	139.267471
2857.340332	104.434387
2856.693848	154.693588
2856.047363	135.335876
2855.400635	150.779404
2854.753906	173.949219
2854.107178	123.678009
2853.460205	104.337112
2852.813232	135.230804
2852.166016	173.841171
2851.518799	139.051331
2850.871338	181.511032
2850.223877	142.869461
2849.576416	181.454636
2848.928711	193.006851
2848.281006	158.241028
2847.633301	204.523682
2846.985352	138.900162
2846.337158	192.886902
2845.688965	173.571228
2845.040771	192.826950
2844.392578	200.508865
2843.743896	181.200989
2843.095459	208.156006
2842.446777	158.019806
2841.798096	188.823578
2841.149170	138.705963
2840.500244	157.946106
2839.851074	146.366318
2839.202148	184.855026
2838.552734	127.068062
2837.903320	134.748199
2837.253906	119.329842
2836.604492	134.706284
2835.954834	138.533493
2835.304932	150.054596
2834.655029	111.561707
2834.005127	80.773499
2833.354980	123.064270
2832.704834	107.664482
2832.054688	99.958611
2831.404297	96.099091
2830.753906	92.240776
2830.103271	69.169815
2829.452637	88.369896
2828.801758	57.623573
2828.150879	61.455578
2827.500000	96.009392
2826.848877	80.635338
2826.197754	49.909344
2825.546387	95.964569
2824.895020	76.759705
2824.243408	46.048653
2823.591797	76.735802
2822.940186	46.034313
2822.288330	69.040718
2821.636475	57.524971
2820.984619	72.853615
2820.332520	72.842270
2819.680176	57.498100
2819.028076	53.656536
2818.375488	61.312202
2817.723145	61.302654
2817.070557	57.462284
2816.417725	72.774223
2815.764893	65.103638
2815.112061	80.409607
2814.458984	84.225510
2813.805908	76.556717
2813.152832	72.717545
2812.499512	57.399643
2811.845947	72.694885
2811.192383	34.429054
2810.538818	72.672226
2809.885010	53.539612
2809.231201	107.062531
2808.577393	42.053722
2807.923340	53.514576
2807.269287	80.259354
2806.614990	57.319172
2805.960693	26.744776
2805.306152	72.581642
2804.651611	42.014400
2803.997070	106.929070
2803.342285	30.546398
2802.687500	34.359341
2802.032471	72.525070
2801.377441	64.880730
2800.722412	87.766121
2800.067139	64.860489
2799.411621	53.406189
2798.756348	41.955460
2798.100586	38.135376
2797.445068	53.381199
2796.789307	91.496346
2796.133301	53.364544
2795.477539	41.922741
2794.821289	57.158451
2794.165283	99.059189
2793.509033	91.424980
2792.852539	91.410713
2792.196045	57.122776
2791.539551	87.574585
2790.882813	95.174911
2790.226074	53.289631
2789.569092	34.252270
2788.912109	49.467777
2788.255127	68.483154
2787.597900	64.668434
2786.940430	72.265198
2786.283203	110.282288
2785.625488	34.220192
2784.968018	34.214851
2784.310303	60.816898
2783.652588	79.809715
2782.994629	56.998035
2782.336426	91.182610
2781.678467	68.376274
2781.020264	60.769413
2780.361816	49.367435
2779.703369	75.938034
2779.044922	79.722481
2778.386230	49.344299
2777.727539	72.107323
2777.068604	64.506996
2776.409668	60.702976
2775.750732	72.073517
2775.091553	49.305756
2774.432373	53.090206
2773.772949	64.456604
2773.113525	72.028465
2772.453857	64.436447
2771.794189	60.636589
2771.134521	53.048721
2770.474609	37.886021
2769.814697	49.244122
2769.154541	68.173508
2768.494385	49.228725
2767.833984	56.793491
2767.173584	41.642048
2766.513184	56.775726
2765.852539	37.844566
2765.191895	41.622509
2764.531006	45.399273
2763.870117	49.174850
2763.209229	56.731335
2762.548096	52.940964
2761.886719	60.494492
2761.225586	45.363770
2760.563965	56.695839
2759.902588	49.128704
2759.240967	86.906410
2758.579102	75.558968
2757.917236	56.660355
2757.255371	60.428253
2756.593262	56.642620
2755.931152	64.184921
2755.269043	83.049835
2754.606689	30.195213
2753.944092	83.023834
2753.281494	56.598297
2752.618896	82.997841
2751.956055	33.948345
2751.293213	64.114609
2750.630371	49.021141
2749.967285	71.635063
2749.303955	64.084496
2748.640625	48.998112
2747.977295	82.906898
2747.313721	94.197624
2746.650146	37.673145
2745.986572	71.567764
2745.322754	60.258152
2744.658691	86.607521
2743.994873	56.474316
2743.330566	75.287292
2742.666504	79.039268
2742.002197	94.079620
2741.337646	48.913734
2740.673096	33.858047
2740.008545	56.421234
2739.343750	67.694870
2738.678955	86.485443
2738.013916	67.673653
2737.348877	75.181160
2736.683594	56.377029
2736.018311	78.915466
2735.353027	75.145805
2734.687500	56.350513
2734.021973	86.390572
2733.356201	67.599411
2732.690430	67.588814
2732.024658	71.332558
2731.358643	48.798832
2730.692383	86.322853
2730.026367	37.525787
2729.359863	93.799751
2728.693604	45.016819
2728.027100	52.511383
2727.360352	67.504044
2726.693604	78.742355
2726.026855	44.988575
2725.359863	59.975353
2724.692871	59.965942
2724.025635	63.703815
2723.358398	93.667374
2722.691162	74.922142
2722.023682	67.419342
2721.355957	67.408760
2720.688477	63.653835
2720.020508	67.387596
2719.352783	63.633854
2718.684814	74.851601
2718.016602	112.259773
2717.348389	108.500748
2716.680176	41.148991
2716.011719	78.544830
2715.343262	78.532494
2714.674561	59.824886
2714.005859	59.815491
2713.337158	78.495499
2712.668213	56.059410
2711.999023	56.050602
2711.329834	56.041798
2710.660645	78.446190
2709.991455	70.963974
2709.321777	44.812309
2708.652344	63.474133
2707.982666	89.596458
2707.312988	55.988987
2706.643066	55.980190
2705.972900	55.971390
2705.302979	55.962593
2704.632813	59.684052
2703.962402	63.404339
2703.291992	55.936211
2702.621582	78.298386
2701.950928	37.279083
2701.280273	48.455189
2700.609375	40.994099
2699.938477	44.713802
2699.267334	74.511284
2698.596191	81.949524
2697.925049	67.039070
2697.253662	59.580914
2696.582031	48.401878
2695.910645	63.284809
2695.239014	66.996902
2694.567139	59.543438
2693.895264	52.092312
2693.223145	55.804409
2692.551270	59.515339
2691.878906	52.067730
2691.206543	59.496613
2690.534180	66.923157
2689.861816	55.760521
2689.189209	81.769234
2688.516357	78.040161
2687.843506	63.165428
2687.170654	92.875717
2686.497559	55.716660
2685.824463	37.138592
2685.151123	74.265488
2684.477783	81.679184
2683.804199	51.969479
2683.130615	48.249775
2682.457031	63.085922
2681.783203	66.786346
2681.109375	59.356289
2680.435303	66.765312
2679.761230	63.046196
2679.086914	66.744286
2678.412598	74.148636
2677.738281	55.602715
2677.063721	59.300220
2676.389160	55.585201
2675.714355	48.166252
2675.039551	81.499275
2674.364502	62.966793
2673.689453	29.626762
2673.014404	59.244190
2672.339111	59.234852
2671.663574	59.225517
2670.988037	74.020233
2670.312500	55.506424
2669.636719	66.597214
2668.960938	59.188190
2668.285156	66.576218
2667.609131	70.263817
2666.932861	44.370152
2666.256592	70.241669
2665.580322	36.963470
2664.903809	96.089867
2664.227295	77.598808
2663.550781	77.586571
2662.874023	62.798275
2662.197021	66.481804
2661.520020	70.164169
2660.843018	77.537643
2660.165771	81.217094
2659.488525	70.130974
2658.811035	36.905216
2658.133545	92.248489
2657.455811	59.029716
2656.778076	66.397957
2656.100342	77.452057
2655.422363	55.314171
2654.744385	62.679501
2654.066162	88.474739
2653.387939	47.916256
2652.709473	84.761536
2652.031006	84.748154
2651.352539	69.998299
2650.673828	73.670784
2649.994873	51.561409
2649.316162	66.282776
2648.636963	55.226925
2647.958008	58.899422
2647.278809	55.209488
2646.599365	66.240929
2645.919922	36.794704
2645.240479	95.651123
2644.560791	58.852932
2643.880859	69.876816
2643.201172	62.511490
2642.520996	73.531311
2641.841064	69.843712
2641.160889	88.209702
2640.480469	40.423061
2639.800049	66.136375
2639.119629	77.146912
2638.438965	77.134727
2637.758301	55.087524
2637.077393	99.141876
2636.396484	58.741459
2635.715332	47.719891
2635.034180	47.712349
2634.353027	58.713612
2633.671631	36.690208
2632.989990	73.368813
2632.308350	77.025078
2631.626709	58.676495
2630.944824	80.667427
2630.262939	87.986916
2629.581055	62.314209
2628.898926	62.304359
2628.216553	47.636974
2627.534180	73.276062
2626.851807	65.938026
2626.169189	73.252892
2625.486572	84.227501
2624.803711	69.568230
2624.120850	91.522667
2623.437988	76.866882
2622.754883	58.555977
2622.071533	62.205883
2621.388184	84.147583
2620.704834	76.818245
2620.021240	36.574329
2619.337646	69.480225
2618.653809	87.750610
2617.969971	76.769630
2617.286133	91.377953
2616.602051	80.399872
2615.917725	51.155457
2615.233398	76.721039
2614.549072	47.486458
2613.864502	62.087845
2613.179932	65.729668
2612.495117	62.068188
2611.810303	73.009834
2611.125488	62.048534
2610.440430	76.636047
2609.755127	58.380127
2609.069824	43.778160
2608.384521	69.304443
2607.698975	69.293465
2607.013428	76.575378
2606.327637	61.979774
2605.641846	61.969955
2604.956055	69.249565
2604.270020	80.171005
2603.583740	87.445419
2602.897461	69.216660
2602.211182	54.636070
2601.524658	58.269241
2600.838135	69.183754
2600.151367	83.735489
2599.464600	50.961349
2598.777832	80.069427
2598.090820	80.056732
2597.403564	87.320770
2596.716309	54.566833
2596.029053	65.469818
2595.341553	58.186169
2594.654053	72.721176
2593.966309	72.709648
2593.278564	76.333023
2592.590820	72.686584
2591.902832	83.576317
2591.214600	83.563065
2590.526367	58.121609
2589.838135	83.536560
2589.149658	101.680550
2588.461182	94.402679
2587.772461	98.017998
2587.083740	61.705242
2586.394775	90.728607
2585.705811	94.342781
2585.016846	76.187851
2584.327637	90.685425
2583.638184	76.163673
2582.948975	68.899048
2582.259277	72.513809
2581.569824	76.127411
2580.879883	76.115326
2580.190186	76.103249
2579.500244	57.974220
2578.810059	83.324715
2578.119873	83.311485
2577.429688	94.163246
2576.739258	68.800674
2576.048584	72.410271
2575.358154	83.258583
2574.667236	36.193634
2573.976563	61.519409
2573.285645	65.127853
2572.594482	86.823341
2571.903320	83.192490
2571.212158	79.562782
2570.520752	83.166061
2569.829102	75.922165
2569.137451	72.295334
2568.445801	72.283852
2567.753906	68.658745
2567.062012	68.647835
2566.370117	68.636925
2565.677979	61.402229
2564.985596	72.226433
2564.293213	97.490189
2563.600830	83.033997
2562.908203	61.363201
2562.215332	90.225655
2561.522705	79.385956
2560.829590	108.236366
2560.136719	72.146103
2559.443604	75.741364
2558.750244	86.547798
2558.056885	82.928452
2557.363525	97.335304
2556.669922	104.528702
2555.976074	64.869568
2555.282227	75.669128
2554.588379	75.657089
2553.894287	79.247200
2553.200195	79.234596
2552.505859	72.019989
2551.811523	54.006397
2551.117188	61.197514
2550.422607	89.982025
2549.727783	89.967705
2549.032959	68.364578
2548.338135	57.561008
2547.643066	75.536797
2546.947998	61.139107
2546.252686	68.321068
2545.557373	82.691284
2544.861816	64.704620
2544.166260	71.882576
2543.470703	79.058243
2542.774902	61.080734
2542.078857	86.217896
2541.382813	86.204170
2540.686768	86.190445
2539.990479	68.223236
2539.294189	71.802490
2538.597656	68.201508
2537.901123	82.546570
2537.204346	89.710236
2536.507568	64.581085
2535.810791	57.396263
2535.113770	96.840767
2534.416504	96.825340
2533.719238	89.638809
2533.021973	89.624527
2532.324463	68.103783
2531.626953	100.347481
2530.929199	82.415154
2530.231445	107.480888
2529.533447	100.299507
2528.835449	68.049538
2528.137451	68.038689
2527.439209	89.510323
2526.740723	71.596840
2526.042236	60.847614
2525.343750	67.995316
2524.645020	64.406342
2523.946289	85.861427
2523.247314	60.808815
2522.548340	60.799118
2521.849121	107.275452
2521.149902	107.258347
2520.450684	100.091820
2519.751221	85.779305
2519.051514	60.750648
2518.351807	96.470932
2517.652100	85.738266
2516.952148	92.868301
2516.252197	89.282196
2515.552002	107.121544
2514.851807	85.683556
2514.151367	89.239464
2513.450928	89.225227
2512.750244	53.526592
2512.049561	82.061005
2511.348877	89.182510
2510.647949	96.301735
2509.946777	89.154045
2509.245605	67.746254
2508.544434	78.430511
2507.843018	99.804710
2507.141602	74.841583
2506.439941	81.956268
2505.738281	103.319664
2505.036377	74.805740
2504.334473	85.478622
2503.632568	67.659767
2502.930420	92.572266
2502.228027	103.237183
2501.525635	88.983360
2500.823242	88.969147
2500.120605	81.838539
2499.417969	92.498352
2498.715088	81.812393
2498.012207	67.573349
2497.309082	99.565865
2496.605957	78.217827
2495.902588	81.760109
2495.199219	92.409706
2494.495605	88.841286
2493.791992	88.827087
2493.088379	92.365402
2492.384521	95.902588
2491.680664	78.130356
2490.976563	88.770302
2490.272461	78.105377
2489.568115	99.390953
2488.863770	99.375061
2488.159180	120.650421
2487.454590	78.055435
2486.749756	99.327393
2486.044922	78.030472
2485.339844	102.841896
2484.634766	81.551216
2483.929688	106.354141
2483.224365	106.337128
2482.519043	95.688103
2481.813477	85.042488
2481.107666	74.400269
2480.402100	113.353699
2479.696045	95.626877
2478.990234	70.823395
2478.284180	95.596275
2477.577881	102.661049
2476.871582	99.105156
2476.165039	77.855873
2475.458496	102.611771
2474.751953	67.217636
2474.045166	88.430099
2473.338379	106.099136
2472.631348	91.937866
2471.924072	70.710114
2471.217041	88.373482
2470.509521	49.481228
2469.802246	63.608532
2469.094482	102.464005
2468.386963	98.914917
2467.679199	98.899078
2466.971191	116.540955
2466.263184	95.336418
2465.554932	88.260323
2464.846680	91.776031
2464.138428	77.644196
2463.429932	91.746628
2462.721436	95.260078
2462.012695	67.024124
2461.303955	112.864655
2460.594971	134.005295
2459.885986	116.354370
2459.176758	109.285072
2458.467529	98.693275
2457.758057	74.008095
2457.048584	73.996231
2456.338867	112.738083
2455.629150	84.540009
2454.919434	102.136131
2454.209473	109.162498
2453.499512	70.416130
2452.789307	88.006042
2452.078857	87.991936
2451.368408	102.054276
2450.657959	87.963715
2449.947266	109.057510
2449.236572	102.005180
2448.525879	77.370827
2447.814697	105.488747
2447.103760	80.861732
2446.392578	105.454903
2445.681152	101.923386
2444.969727	73.794746
2444.258301	80.809853
2443.546631	70.258156
2442.834717	80.783913
2442.122803	84.282730
2441.410889	105.336510
2440.698730	98.298294
2439.986572	94.772423
2439.274170	77.209579
2438.561768	115.795776
2437.849121	126.302391
2437.136475	105.235092
2436.423584	91.189102
2435.710693	77.147621
2434.997803	133.233582
2434.284424	77.122849
2433.571289	84.120499
2432.857910	105.133743
2432.144287	84.093483
2431.430908	108.603302
2430.717041	87.569237
2430.003174	112.070625
2429.289307	108.550972
2428.575195	77.023796
2427.861084	91.013504
2427.146729	97.998787
2426.432373	115.480019
2425.717773	87.470802
2425.003174	104.948097
2424.288330	87.442688
2423.573486	97.920074
2422.858643	97.904335
2422.143555	104.880638
2421.428223	122.341080
2420.712891	104.846924
2419.997559	108.324402
2419.281982	73.369247
2418.566162	125.755630
2417.850586	111.764809
2417.134521	94.286392
2416.418457	94.271233
2415.702393	83.783173
2414.986084	111.692932
2414.269775	122.144493
2413.553223	94.210594
2412.836670	111.639046
2412.120117	108.132927
2411.403076	97.652733
2410.686279	111.585175
2409.969238	108.080742
2409.251953	118.521095
2408.534668	94.104546
2407.817383	118.482956
2407.099854	104.526962
2406.382080	114.961151
2405.664307	111.459534
2404.946533	111.441597
2404.228516	100.977692
2403.510498	90.517151
2402.792236	121.830391
2402.073975	135.732010
2401.355469	90.473434
2400.636963	97.417244
2399.918213	90.444305
2399.199463	97.385872
2398.480469	97.370193
2397.761475	90.400612
2397.042480	100.815216
2396.323242	97.323151
2395.603760	107.733276
2394.884277	100.766502
2394.164795	114.646866
2393.445068	97.260452
2392.725098	93.771759
2392.005127	111.118988
2391.285156	83.325813
2390.564941	100.669136
2389.844727	111.065277
2389.124268	90.225998
2388.403809	100.620468
2387.683105	114.480698
2386.962402	100.588036
2386.241455	100.571823
2385.520508	114.425346
2384.799316	114.406898
2384.078125	121.321091
2383.356689	97.041222
2382.635254	114.351570
2381.913818	121.262413
2381.192139	93.530205
2380.470215	128.150345
2379.748291	103.888931
2379.026367	114.259392
2378.304199	90.008026
2377.581787	114.222534
2376.859375	96.900452
2376.136963	128.026367
2375.414307	79.571121
2374.691650	103.771675
2373.968750	131.422913
2373.245850	134.859634
2372.522705	124.465736
2371.799316	100.247887
2371.076172	120.969299
2370.352783	114.038361
2369.629150	141.661148
2368.905518	96.728584
2368.181641	134.707352
2367.457764	86.336929
2366.733643	131.210938
2366.009521	93.213776
2365.285400	93.198723
2364.561035	79.378685
2363.836426	106.971382
2363.111816	103.503975
2362.387207	93.138535
2361.662354	106.919563
2360.937256	117.247681
2360.212158	134.468262
2359.487061	134.446533
2358.761719	127.531235
2358.036377	134.403107
2357.310791	103.370300
2356.584961	117.134071
2355.859375	117.115143
2355.133301	120.540230
2354.407471	99.860046
2353.681152	113.615486
2352.955078	130.808807
2352.228516	110.136978
2351.502197	99.795502
2350.775635	103.220039
2350.048828	116.963799
2349.322021	144.461334
2348.594971	99.730988
2347.867920	137.537735
2347.140869	113.450287
2346.413330	99.682617
2345.686035	99.666496
2344.958496	96.214157
2344.230713	120.248245
2343.502930	130.534119
2342.775146	127.078453
2342.047119	85.849930
2341.319092	99.569809
2340.590820	85.822151
2339.862305	96.105263
2339.133789	137.271011
2338.405273	123.523926
2337.676514	126.934601
2336.947754	140.634491
2336.218750	116.604851
2335.489746	106.298981
2334.760498	126.852448
2334.031250	133.687698
2333.301758	95.965370
2332.572266	116.510513
2331.842529	130.196548
2331.112793	102.770111
2330.382813	113.028816
2329.652832	92.463150
2328.922607	109.568207
2328.192383	92.433205
2327.462158	116.378517
2326.731689	99.247955
2326.000977	116.340820
2325.270264	133.428146
2324.539307	116.303139
2323.808350	119.704422
2323.077393	112.845886
2322.346191	133.341705
2321.614746	116.227783
2320.883301	109.373131
2320.151855	119.607475
2319.420166	133.255310
2318.688232	92.238724
2317.956299	109.302246
2317.224365	119.529961
2316.492188	105.852234
2315.760010	92.178932
2315.027588	136.539246
2314.295166	109.213692
2313.562500	109.195984
2312.829590	116.001923
2312.096924	129.628174
2311.363770	109.142876
2310.630615	122.765823
2309.897461	92.059433
2309.164063	129.544113
2308.430664	160.199631
2307.697021	136.317993
2306.963379	109.036705
2306.229492	126.053238
2305.495605	129.439087
2304.761719	102.172165
2304.027344	105.560776
2303.293213	125.971451
2302.558838	108.930603
2301.824219	122.527039
2301.089600	129.313110
2300.354736	98.670303
2299.619873	112.261780
2298.885010	142.855438
2298.149658	132.629944
2297.414551	146.209274
2296.679199	139.386215
2295.943604	156.359146
2295.208008	112.152473
2294.472412	118.930283
2293.736572	108.718597
2293.000488	129.082367
2292.264404	108.683289
2291.528320	142.623657
2290.791992	108.647987
2290.055420	112.025040
2289.318848	156.130753
2288.582275	105.201454
2287.845459	108.577408
2287.108398	118.737244
2286.371582	149.245422
2285.634277	94.958931
2284.896973	98.334343
2284.159668	108.489227
2283.422119	115.251068
2282.684570	128.789078
2281.946777	128.768158
2281.208740	111.806801
2280.470703	111.788620
2279.732666	145.640289
2278.994385	118.525146
2278.256104	138.821167
2277.517578	132.027939
2276.779053	104.928215
2276.040283	118.448074
2275.301514	125.196175
2274.562500	115.026421
2273.823486	131.920609
2273.084229	131.899155
2272.344971	125.114746
2271.605469	118.332535
2270.865967	108.172142
2270.126221	135.193192
2269.386475	125.033348
2268.646484	141.906662
2267.906494	135.127197
2267.166260	124.972328
2266.426025	131.706146
2265.685547	141.814316
2264.945068	121.535339
2264.204346	141.768143
2263.463623	155.244598
2262.722656	114.727333
2261.981689	138.325150
2261.240723	111.316750
2260.499268	134.907425
2259.758057	134.885452
2259.016602	121.377144
2258.274902	141.583603
2257.533203	131.449081
2256.791260	128.057739
2256.049316	134.775665
2255.307129	134.753708
2254.564941	138.100052
2253.822754	134.709808
2253.080322	131.320679
2252.337646	114.466034
2251.594971	124.545685
2250.852051	141.353149
2250.109131	127.870110
2249.366211	158.129364
2248.623047	137.920151
2247.879639	131.170959
2247.136230	137.875198
2246.392578	144.577255
2245.648926	144.553680
2244.905273	117.640800
2244.161377	147.867172
2243.417236	157.923279
2242.673096	124.302315
2241.928955	167.948715
2241.184570	134.337067
2240.439941	151.104553
2239.695313	151.079910
2238.950439	120.844215
2238.205566	137.605682
2237.460693	137.583237
2236.715576	144.271088
2235.970215	147.602142
2235.224854	130.807831
2234.479492	124.079491
2233.733887	137.471054
2232.988037	140.801025
2232.242188	97.203896
2231.496338	140.755081
2230.750244	157.485931
2230.003906	157.460236
2229.257568	130.637161
2228.511230	157.408829
2227.764648	154.034561
2227.017822	147.313354
2226.270996	130.551880
2225.523926	150.612198
2224.776855	163.973175
2224.029785	130.487946
2223.282471	130.466644
2222.534912	143.824341
2221.787354	127.079826
2221.039795	130.402740
2220.291992	140.410782
2219.543945	130.360138
2218.795898	140.364914
2218.047852	130.317551
2217.299561	160.364624
2216.551025	153.657669
2215.802490	153.632553
2215.053955	133.571701
2214.305176	170.276093
2213.556152	130.189850
2212.807129	160.207474
2212.058105	156.844177
2211.308838	123.452896
2210.559326	160.128937
2209.809814	130.083496
2209.060303	156.741653
2208.310547	130.040955
2207.560547	146.688889
2206.810547	159.998077
2206.060303	146.640930
2205.310059	149.949158
2204.559814	123.271362
2203.809326	149.900116
2203.058594	123.231041
2202.307861	133.200958
2201.557129	123.190735
2200.806152	179.762466
2200.054932	149.777557
2199.303711	159.736588
2198.552246	143.073944
2197.800781	136.397018
2197.049316	123.069855
2196.297607	133.026718
2195.545654	123.029579
2194.793701	156.255249
2194.041504	132.961426
2193.289307	159.527588
2192.537109	156.178528
2191.784668	142.863342
2191.031982	136.196243
2190.279297	142.816574
2189.526367	156.076279
2188.773438	156.050720
2188.020508	169.303909
2187.267090	162.637909
2186.513916	162.611267
2185.760498	155.948532
2185.006836	152.605484
2184.253174	139.312622
2183.499268	145.922638
2182.745361	135.951096
2181.991211	139.244156
2181.237061	155.795319
2180.482666	175.655304
2179.728271	155.744278
2178.973877	165.658249
2178.218994	155.693237
2177.464355	129.171082
2176.709229	142.396057
2175.954346	135.750732
2175.198975	142.349380
2174.443848	135.706238
2173.688232	155.540176
2172.932861	181.985260
2172.177002	135.639496
2171.421387	175.310120
2170.665283	168.666977
2169.909424	162.026016
2169.153076	161.999451
2168.396729	175.195160
2167.640381	148.726212
2166.883789	132.179382
2166.127197	165.197128
2165.370361	155.259842
2164.613525	168.445801
2163.856445	161.813538
2163.099365	151.881653
2162.342041	155.157974
2161.584473	161.733887
2160.826904	138.606308
2160.069336	161.680817
2159.311523	155.056152
2158.553711	168.224808
2157.795654	138.515335
2157.037354	161.574692
2156.279053	158.251266
2155.520752	158.225296
2154.762207	168.086777
2154.003662	154.878067
2153.244873	174.621048
2152.485840	177.886581
2151.726807	161.389084
2150.967773	144.897018
2150.208252	184.384094
2149.448975	161.309586
2148.689453	184.323532
2147.929688	184.293259
2147.169922	177.682159
2146.410156	213.841537
2145.650146	184.202438
2144.889893	147.995499
2144.129639	164.412415
2143.369141	167.673111
2142.608643	164.358383
2141.847900	167.618011
2141.087158	164.304367
2140.326416	174.134003
2139.565186	170.820374
2138.804199	206.921432
2138.042725	147.776733
2137.281494	157.602600
2136.519775	160.859528
2135.758301	177.244629
2134.996338	177.215485
2134.234619	141.092819
2133.472412	180.437881
2132.710449	167.287613
2131.947998	160.700882
2131.185547	154.116302
2130.423096	150.812424
2129.660400	180.289551
2128.897705	173.704971
2128.134766	176.953308
2127.371826	167.095078
2126.608643	189.998428
2125.845215	144.113022
2125.081787	176.836868
2124.318359	173.533554
2123.554688	189.873398
2122.790771	186.569000
2122.026855	176.720490
2121.262939	193.051712
2120.498779	166.847733
2119.734375	199.530121
2118.969971	179.874588
2118.205322	179.844971
2117.440674	189.623474
2116.676025	179.785751
2115.911133	202.634201
2115.145996	199.333069
2114.380859	182.964157
2113.615479	196.000732
2112.850098	169.839325
2112.084473	176.342560
2111.318848	163.253250
2110.552979	182.813507
2109.787109	172.991425
2109.020996	199.070526
2108.254883	172.934418
2107.488525	159.856415
2106.722168	176.139267
2105.955566	182.632843
2105.188965	202.167313
2104.422119	192.353317
2103.655029	189.061920
2102.887939	205.326508
2102.120850	202.034042
2101.353516	188.968430
2100.585938	221.512665
2099.818359	179.135117
2099.050781	185.618500
2098.282959	208.379395
2097.514893	221.366592
2096.746826	198.546097
2095.978760	201.767670
2095.210449	211.495728
2094.441895	198.447861
2093.673340	185.404297
2092.904541	169.112854
2092.135742	191.846390
2091.366699	208.070236
2090.597656	240.541504
2089.828369	191.751450
2089.059082	178.721848
2088.289551	162.447586
2087.520020	194.904938
2086.750244	201.368530
2085.980469	185.098572
2085.210449	178.574402
2084.440186	223.992722
2083.670166	217.464264
2082.899658	184.976364
2082.129150	168.722504
2081.358643	210.868301
2080.587891	227.051437
2079.816895	233.500061
2079.045898	214.006363
2078.274902	171.825211
2077.503662	230.142929
2076.732178	207.418518
2075.960693	233.307281
2075.188965	207.349991
2074.417236	207.315735
2073.645264	207.281479
2072.873291	184.579559
2072.101074	197.499863
2071.328857	229.838898
2070.556396	213.617752
2069.783936	213.582443
2069.011230	223.253830
2068.238525	223.216934
2067.465576	203.773071
2066.692627	210.207306
2065.919434	210.172546
2065.145996	193.973358
2064.372559	213.335403
2063.599121	213.300125
2062.825439	229.421295
2062.051514	255.229355
2061.277588	197.043243
2060.503662	213.159058
2059.729248	203.436356
2058.955078	222.774399
2058.180664	235.649857
2057.406006	248.521057
2056.631348	212.982803
2055.856445	196.815170
2055.081543	232.267990
2054.306396	193.524628
2053.531250	261.215027
2052.755859	225.704010
2051.980225	238.561905
2051.204590	232.075867
2050.428955	277.155823
2049.653076	231.999039
2048.877197	209.408905
2048.101074	244.806793
2047.324707	209.339569
2046.548340	215.745056
2045.771851	225.367950
2044.995239	238.206665
2044.218506	202.763977
2043.441528	247.781601
2042.664551	222.001282
2041.887329	234.832016
2041.110107	260.523865
2040.332642	231.538406
2039.555176	218.638931
2038.777466	263.609161
2037.999634	234.637558
2037.221802	263.521790
2036.443726	237.772949
2035.665527	257.009247
2034.887207	244.118317
2034.108765	263.347137
2033.330200	266.514526
2032.551514	240.786453
2031.772705	231.116684
2030.993774	234.287781
2030.214600	237.457825
2029.435425	259.876953
2028.656128	288.704285
2027.876587	262.998077
2027.097046	240.507126
2026.317261	256.498383
2025.537476	266.072937
2024.757446	250.002975
2023.977295	288.417145
2023.197021	281.961090
2022.416626	265.896454
2021.636230	265.852325
2020.855591	297.833313
2020.074707	275.370056
2019.293823	272.122925
2018.512817	275.278656
2017.731689	281.633759
2016.950439	259.188049
2016.168945	265.543671
2015.387451	284.692322
2014.605713	278.248566
2013.823975	278.202362
2013.041992	300.536560
2012.260010	271.716675
2011.477783	262.083130
2010.695435	265.235229
2009.912964	316.312378
2009.130371	303.481659
2008.347656	287.461212
2007.564819	271.446045
2006.781860	290.558685
2005.998779	290.510406
2005.215576	296.845947
2004.432129	293.605255
2003.648682	293.556488
2002.864990	306.268921
2002.081299	303.028259
2001.297363	312.545624
2000.513428	322.059814
1999.729248	283.748108
1998.944946	312.389801
1998.160522	277.279572
1997.375977	312.285980
1996.591309	321.792236
1995.806519	340.851959
1995.021606	299.390259
1994.236572	308.893890
1993.451416	318.394348
1992.666016	311.974579
1991.880615	327.837128
1991.094971	340.512024
1990.309326	359.546356
1989.523438	356.305267
1988.737549	346.703705
1987.951416	353.006500
1987.165161	362.486908
1986.378784	327.455597
1985.592285	349.651703
1984.805664	346.415405
1984.018921	320.936981
1983.232056	343.123047
1982.444946	358.948639
1981.657837	355.712891
1980.870605	371.531067
1980.083130	377.819122
1979.295654	336.488770
1978.507935	371.345581
1977.720093	396.670685
1976.932129	374.394775
1976.144165	367.987823
1975.355957	314.006287
1974.567627	390.064056
1973.779053	374.145477
1972.990479	355.061981
1972.201782	355.002838
1971.412964	396.142548
1970.623901	383.402100
1969.834839	383.338226
1969.045532	373.771698
1968.256226	357.874298
1967.466675	370.480682
1966.677002	436.904388
1965.887207	389.349884
1965.097290	389.285004
1964.307251	414.535278
1963.517090	382.827545
1962.726807	398.580414
1961.936401	376.374329
1961.145874	354.175598
1960.355103	411.028137
1959.564331	417.282074
1958.773315	436.176727
1957.982178	404.502258
1957.191040	458.148804
1956.399658	401.208252
1955.608154	413.775696
1954.816528	385.284088
1954.024780	457.843262
1953.232910	413.568695
1952.440918	378.778351
1951.648682	454.458221
1950.856445	419.672638
1950.063965	416.447693
1949.271484	425.841370
1948.478760	447.847290
1947.685913	457.232544
1946.893066	375.183380
1946.099976	412.948090
1945.306763	425.486145
1944.513428	441.171265
1943.719971	466.303192
1942.926270	422.122955
1942.132568	453.548950
1941.338745	444.025848
1940.544678	469.140472
1939.750610	393.508514
1938.956299	440.655914
1938.161865	434.288300
1937.367310	424.776306
1936.572632	456.165009
1935.777832	459.234253
1934.982910	452.867737
1934.187866	521.968628
1933.392700	487.298950
1932.597290	465.214172
1931.801880	474.564880
1931.006226	455.631836
1930.210571	455.555725
1929.414673	493.174438
1928.618652	442.840607
1927.822510	505.570374
1927.026245	477.228882
1926.229858	480.288269
1925.433350	511.594116
1924.636719	436.194458
1923.839844	489.460114
1923.042969	451.733826
1922.245850	511.252075
1921.448730	520.574585
1920.651367	464.049103
1919.853882	479.646210
1919.056274	467.028320
1918.258545	523.360291
1917.460693	507.605927
1916.662720	476.192535
1915.864624	532.494690
1915.066284	504.219421
1914.267944	526.053955
1913.469360	538.488953
1912.670776	535.268616
1911.871948	522.660217
1911.072998	535.089478
1910.273926	544.385925
1909.474731	528.654114
1908.675415	503.544800
1907.875977	503.460510
1907.076294	500.249664
1906.276611	506.417969
1905.476807	515.709717
1904.676758	503.123444
1903.876587	484.292389
1903.076294	499.830994
1902.275879	559.092285
1901.475342	521.523865
1900.674683	515.191772
1899.873901	543.202148
1899.072998	505.655243
1898.271851	524.295349
1897.470703	486.764130
1896.669312	545.958008
1895.867920	530.270386
1895.066284	542.656372
1894.264526	520.738098
1893.462646	511.297821
1892.660645	498.743530
1891.858521	545.409302
1891.056152	529.737366
1890.253784	454.874664
1889.451172	507.754395
1888.648560	529.471008
1887.845703	554.294373
1887.042725	532.406982
1886.239624	516.752869
1885.436401	519.778687
1884.633057	519.691528
1883.829590	569.386780
1883.025879	507.073669
1882.222168	506.988647
1881.418213	497.574066
1880.614258	525.474487
1879.810059	544.039063
1879.005737	515.973328
1878.201294	531.425537
1877.396729	537.550842
1876.592041	549.887451
1875.787231	571.538513
1874.982178	555.914246
1874.177124	555.820923
1873.371826	524.681396
1872.566406	561.842590
1871.760986	533.816040
1870.955322	546.138672
1870.149536	542.944458
1869.343506	536.649231
1868.537476	486.935150
1867.731323	551.973938
1866.924927	520.876648
1866.118530	539.388794
1865.311890	526.900574
1864.505127	551.603210
1863.698242	511.231689
1862.891235	573.102905
1862.084106	554.422607
1861.276855	591.491211
1860.469482	551.140015
1859.661865	600.579773
1858.854126	504.526062
1858.046387	538.483337
1857.238403	529.110168
1856.430298	581.614014
1855.622070	556.770874
1854.813721	535.028748
1854.005249	565.860107
1853.196533	581.223083
1852.387817	519.303528
1851.578857	581.027649
1850.769775	543.849304
1849.960693	522.131165
1849.151367	552.933472
1848.341919	589.902405
1847.532227	534.219666
1846.722534	561.916931
1845.912720	592.691772
1845.102661	583.332825
1844.292603	629.523132
1843.482300	598.563416
1842.671875	576.868713
1841.861328	536.675232
1841.050659	573.590759
1840.239868	613.577209
1839.428833	635.053406
1838.617798	585.630310
1837.806519	570.122986
1836.995117	573.108276
1836.183716	573.011780
1835.372070	585.236084
1834.560303	582.057922
1833.748291	578.880737
1832.936279	544.918335
1832.124146	563.295227
1831.311768	544.734802
1830.499390	581.567993
1829.686768	529.168518
1828.874023	584.448181
1828.061157	516.688171
1827.248169	556.576233
1826.434937	568.780457
1825.621704	568.684631
1824.808228	562.441895
1823.994751	537.763672
1823.181030	549.962708
1822.367188	583.660950
1821.553223	555.920105
1820.739136	540.472107
1819.924927	589.506592
1819.110474	558.708923
1818.296021	552.476135
1817.481323	595.346069
1816.666626	598.314026
1815.851685	564.467773
1815.036621	496.893250
1814.221436	548.943787
1813.406006	594.844360
1812.590576	603.941101
1811.774902	548.666138
1810.959229	527.120972
1810.143311	585.250732
1809.327271	566.770264
1808.511108	603.431946
1807.694824	581.892029
1806.878418	624.662842
1806.061768	557.203247
1805.245117	593.841675
1804.428223	526.409973
1803.611206	563.041199
1802.794067	562.946167
1801.976807	550.615295
1801.159424	574.989990
1800.341919	547.371460
1799.524170	547.279053
1798.706421	565.528137
1797.888428	550.150696
1797.070313	556.169556
1796.252075	540.798828
1795.433716	571.255920
1794.615234	586.431091
1793.796509	561.901550
1792.977783	604.552795
1792.158813	607.503479
1791.339844	637.923523
1790.520630	558.470276
1789.701294	567.529602
1788.881714	570.484436
1788.062134	597.839905
1787.242432	533.695435
1786.422485	545.801941
1785.602417	588.390869
1784.782349	557.809998
1783.962036	566.858643
1783.141479	557.621460
1782.320923	563.620422
1781.500244	593.985962
1780.679321	606.067810
1779.858398	563.334595
1779.037231	599.773804
1778.215942	535.747925
1777.394531	584.353394
1776.572998	596.426575
1775.751221	581.113281
1774.929443	584.057007
1774.107422	586.999634
1773.285278	571.695679
1772.463013	623.286072
1771.640625	535.023376
1770.818115	586.602539
1769.995483	659.436340
1769.172607	586.403992
1768.349731	562.002014
1767.526611	589.242920
1766.703369	583.069519
1765.880005	534.389954
1765.056519	622.337463
1764.232910	573.667664
1763.409058	585.709595
1762.585083	588.644714
1761.761108	561.241394
1760.936890	585.412170
1760.112549	597.443848
1759.288086	576.117310
1758.463379	621.494995
1757.638672	594.109192
1756.813721	597.039246
1755.988647	602.998413
1755.163574	584.718445
1754.338257	608.852356
1753.512695	584.520386
1752.687134	638.926941
1751.861328	566.156860
1751.035522	641.737488
1750.209473	593.203918
1749.383301	577.973206
1748.557007	608.130493
1747.730591	598.952393
1746.903931	586.752869
1746.077271	665.277039
1745.250366	628.882568
1744.423340	610.638184
1743.596313	592.399963
1742.768921	598.343384
1741.941528	682.841797
1741.114014	661.579651
1740.286255	607.100220
1739.458374	606.997253
1738.630493	618.971802
1737.802368	621.885681
1736.973999	676.110535
1736.145630	588.478516
1735.317139	618.551941
1734.488403	618.446960
1733.659546	558.015991
1732.830566	603.158142
1732.001465	590.994690
1731.172241	602.953430
1730.342896	657.107727
1729.513306	608.776245
1728.683594	611.686157
1727.853882	635.684082
1727.023926	638.588379
1726.193726	686.667114
1725.363525	641.382751
1724.533203	698.476685
1723.702637	677.286926
1722.871948	668.142944
1722.041138	640.947205
1721.210205	613.760620
1720.379150	658.778198
1719.547974	712.803223
1718.716553	643.518921
1717.885010	634.389832
1717.053467	694.403564
1716.221558	640.185364
1715.389648	637.071533
1714.557617	697.054199
1713.725342	639.859070
1712.893066	651.764404
1712.060547	639.641602
1711.227905	651.542908
1710.395142	639.424133
1709.562256	720.355469
1708.729126	627.202881
1707.895874	657.100830
1707.062622	695.988464
1706.229126	662.876282
1705.395508	695.751770
1704.561646	662.650879
1703.727783	653.544434
1702.893677	629.454041
1702.059570	710.263000
1701.225220	680.178406
1700.390747	668.079224
1699.556030	676.951599
1698.721313	697.800415
1697.886353	682.709961
1697.051392	712.532104
1696.216187	703.430908
1695.380859	694.332764
1694.545410	739.099121
1693.709717	655.203064
1692.874023	720.899841
1692.038086	687.878540
1691.202026	696.732239
1690.365845	726.511230
1689.529541	705.462769
1688.692993	720.286377
1687.856445	669.363770
1687.019653	740.955139
1686.182739	663.161377
1685.345703	698.888916
1684.508545	695.783630
1683.671143	707.607910
1682.833740	713.457703
1681.996094	752.136841
1681.158325	704.262146
1680.320435	739.945984
1679.482422	712.971619
1678.644287	715.832703
1677.805908	724.657104
1676.967407	736.460083
1676.128784	697.580139
1675.290039	783.898743
1674.451172	703.302551
1673.612183	715.100952
1672.772949	694.125488
1671.933594	726.771423
1671.094116	747.493958
1670.254517	735.456299
1669.414795	747.239075
1668.574829	756.041260
1667.734863	684.487549
1666.894653	714.126038
1666.054321	767.554504
1665.213867	719.831421
1664.373169	752.422668
1663.532471	746.347290
1662.691528	725.409058
1661.850464	692.588013
1661.009277	734.077454
1660.167969	692.351624
1659.326538	760.565552
1658.484863	730.731201
1657.643066	781.095520
1656.801147	769.084473
1655.959106	757.077454
1655.116943	774.758728
1654.274658	774.626465
1653.432129	744.820129
1652.589478	750.626709
1651.746704	756.431335
1650.903809	765.199829
1650.060791	753.207642
1649.217529	776.797974
1648.374146	767.772217
1647.530640	764.677185
1646.687012	785.290100
1645.843262	791.081604
1644.999390	779.097046
1644.155273	761.192932
1643.311035	752.178833
1642.466675	757.971985
1641.622192	754.882080
1640.777588	778.431641
1639.932739	757.583374
1639.087769	778.165527
1638.242798	769.157593
1637.397461	769.026123
1636.552124	727.492615
1635.706665	736.238586
1634.860962	759.762939
1634.015137	809.881104
1633.169189	783.145203
1632.323120	824.377930
1631.476929	815.374146
1630.630493	797.512207
1629.783936	800.329041
1628.937256	752.948303
1628.090454	847.290955
1627.243530	708.414795
1626.396484	696.488647
1625.549194	808.496765
1624.701782	793.607361
1623.854248	766.924194
1623.006592	799.234192
1622.158691	837.430481
1621.310791	819.597961
1620.462646	784.085388
1619.614380	813.423035
1618.765991	807.390381
1617.917358	760.113342
1617.068726	780.602905
1616.219849	824.646729
1615.370850	780.335571
1614.521729	771.369446
1613.672363	800.673889
1612.822998	768.162109
1611.973389	800.399658
1611.123657	785.551819
1610.273804	779.533997
1609.423828	802.929504
1608.573608	861.604492
1607.723389	802.654358
1606.872925	773.120605
1606.022339	843.526978
1605.171509	825.750732
1604.320679	799.166199
1603.469604	752.027466
1602.618408	781.269592
1601.767090	836.931091
1600.915649	795.682251
1600.064087	810.223816
1599.212280	804.214722
1598.360352	845.161011
1597.508301	806.872986
1596.656128	830.203247
1595.803833	794.863953
1594.951294	824.053406
1594.098633	820.979980
1593.245850	762.207764
1592.392944	811.905090
1591.539795	844.002014
1590.686646	832.136963
1589.833252	887.655762
1588.979736	802.560913
1588.126099	863.922729
1587.272217	852.062256
1586.418335	828.495667
1585.564209	787.374878
1584.709961	810.652039
1583.855591	839.773254
1583.000977	863.033386
1582.146362	880.435425
1581.291504	848.114441
1580.436523	853.816833
1579.581421	824.434937
1578.726074	803.832214
1577.870605	803.694153
1577.015137	844.464417
1576.159424	861.848511
1575.303467	852.937378
1574.447510	873.234497
1573.591309	840.964294
1572.734985	884.612488
1571.878540	811.485229
1571.021973	834.693848
1570.165161	878.320557
1569.308350	831.489502
1568.451294	857.599609
1567.594116	848.702698
1566.736694	833.976807
1565.879272	862.988464
1565.021606	871.585144
1564.163818	941.383240
1563.305908	853.801453
1562.447876	894.443604
1561.589600	862.246826
1560.731201	923.260986
1559.872681	867.774292
1559.014038	855.979065
1558.155273	879.119812
1557.296265	829.490173
1556.437134	858.447388
1555.577881	872.847168
1554.718506	904.695923
1553.859009	866.729858
1552.999268	866.580750
1552.139404	918.766418
1551.279419	901.166382
1550.419312	839.975037
1549.558960	857.266357
1548.698608	842.591370
1547.838013	888.926147
1546.977173	821.969910
1546.116333	940.891846
1545.255249	871.046143
1544.394165	850.575256
1543.532837	928.795959
1542.671265	885.106201
1541.809692	861.741882
1540.947876	922.514221
1540.085938	884.648987
1539.223877	884.496582
1538.361694	901.741150
1537.499268	887.090820
1536.636841	860.851624
1535.774170	904.173157
1534.911377	872.144897
1534.048340	898.067566
1533.185303	860.258362
1532.322021	863.006104
1531.458618	891.812317
1530.594971	906.133606
1529.731323	827.825989
1528.867432	902.927185
1528.003418	902.771545
1527.139282	917.080872
1526.275024	861.965210
1525.410522	905.196655
1524.545898	905.040527
1523.681152	936.685486
1522.816284	919.180908
1521.951172	867.002258
1521.086060	866.852661
1520.220703	875.370178
1519.355225	880.996155
1518.489502	909.724304
1517.623779	895.129761
1516.757813	880.540222
1515.891724	923.686096
1515.025513	920.640625
1514.159058	868.542358
1513.292480	940.518066
1512.425781	937.471191
1511.558960	905.585022
1510.692017	839.107483
1509.824829	908.155396
1508.957520	942.589050
1508.090088	933.780151
1507.222534	910.566589
1506.354736	968.030212
1505.486938	939.057556
1504.618896	967.695862
1503.750610	921.455933
1502.882324	967.361572
1502.013794	915.380493
1501.145142	964.149353
1500.276367	952.472534
1499.407471	972.447388
1498.538330	960.773071
1497.669067	894.457458
1496.799683	911.556335
1495.930176	980.400574
1495.060547	997.478577
1494.190674	985.809875
1493.320679	985.639465
1492.450562	962.484375
1491.580200	930.719421
1490.709717	973.639954
1489.839233	947.627197
1488.968384	1022.111938
1488.097534	967.393738
1487.226440	955.745972
1486.355347	990.016052
1485.483887	955.415405
1484.612427	943.775635
1483.740845	1009.579224
1482.869019	989.331177
1481.997070	957.621582
1481.124878	1003.322021
1480.252686	1049.006592
1479.380249	1005.840454
1478.507690	1022.857239
1477.635010	1022.680237
1476.762207	959.491821
1475.889160	967.916687
1475.015991	1033.601929
1474.142700	973.306946
1473.269165	1050.417114
1472.395630	981.554993
1471.521851	947.050842
1470.647949	1001.239868
1469.773804	1029.668335
1468.899658	1103.842163
1468.025269	1040.748535
1467.150757	1057.720459
1466.276001	1060.395508
1465.401245	1040.207764
1464.526245	1100.029175
1463.651123	1071.271362
1462.775879	1088.223145
1461.900391	1082.322998
1461.024780	1136.385010
1460.149048	1096.221680
1459.273193	1116.011475
1458.397217	1035.912842
1457.520996	1098.505005
1456.644653	1183.897583
1455.768188	1058.192383
1454.891479	1080.823120
1454.014648	1129.107544
1453.137695	1128.911743
1452.260620	1162.919434
1451.383423	1145.619019
1450.505981	1128.324463
1449.628418	1130.977661
1448.750732	1150.719604
1447.872803	1164.759155
1446.994873	1113.305176
1446.116699	1144.427246
1445.238403	1184.077393
1444.359863	1104.188232
1443.481201	1197.893311
1442.602417	1191.995605
1441.723511	1183.255737
1440.844482	1197.269653
1439.965210	1236.869141
1439.085815	1253.711792
1438.206299	1298.972412
1437.326538	1261.802124
1436.446777	1187.706665
1435.566772	1230.114014
1434.686646	1204.336670
1433.806274	1198.447754
1432.925781	1243.670410
1432.045166	1215.065063
1431.164429	1209.177124
1430.283569	1208.967163
1429.402466	1152.007935
1428.521240	1200.036255
1427.639893	1199.827759
1426.758301	1242.158936
1425.876709	1097.333252
1424.994873	1216.212280
1424.112793	1207.497437
1423.230713	1170.445557
1422.348389	1195.743652
1421.465942	1240.864258
1420.583374	1280.303955
1419.700562	1217.776489
1418.817627	1302.511230
1417.934570	1228.677368
1417.051392	1253.938721
1416.167969	1284.851440
1415.284546	1341.219604
1414.400757	1363.619019
1413.516968	1329.438721
1412.633057	1343.348022
1411.748901	1280.906860
1410.864624	1306.128174
1409.980103	1288.941162
1409.095459	1192.628296
1408.210815	1308.272095
1407.325806	1163.961792
1406.440796	1288.044312
1405.555542	1270.875122
1404.670166	1259.359253
1403.784668	1264.786377
1402.899048	1289.970459
1402.013184	1202.257690
1401.127197	1216.156860
1400.241089	1193.375366
1399.354736	1238.299316
1398.468262	1235.263428
1397.581665	1316.820923
1396.694946	1302.495361
1395.807983	1358.643677
1394.920898	1197.765625
1394.033691	1206.010254
1393.146362	1279.049683
1392.258789	1225.307739
1391.371094	1284.236694
1390.483276	1244.591553
1389.595337	1250.005371
1388.707153	1227.268799
1387.818848	1283.341797
1386.930420	1218.399536
1386.041748	1282.894531
1385.152954	1240.477783
1384.264038	1245.886353
1383.375000	1248.481079
1382.485718	1217.337891
1381.596313	1253.667603
1380.706787	1287.174072
1379.817139	1256.040283
1378.927246	1208.060791
1378.037231	1238.748535
1377.147095	1280.659424
1376.256714	1288.859985
1375.366333	1266.175293
1374.475586	1243.498413
1373.584839	1184.344971
1372.693970	1172.914185
1371.802856	1270.902954
1370.911499	1329.586914
1370.020142	1301.309448
1369.128540	1295.474243
1368.236816	1275.623169
1367.344971	1202.520508
1366.453003	1202.310547
1365.560791	1238.527954
1364.668457	1271.931152
1363.775879	1196.078735
1362.883301	1257.483887
1361.990479	1220.862427
1361.097534	1192.652710
1360.204346	1184.046875
1359.311035	1209.028198
1358.417603	1186.431519
1357.524048	1214.201294
1356.630249	1155.247803
1355.736450	1160.639404
1354.842285	1154.844116
1353.948120	1140.663574
1353.053711	1171.212158
1352.159180	1145.854614
1351.264526	1156.831421
1350.369751	1117.516235
1349.474731	1055.868164
1348.579590	1089.197388
1347.684204	1111.345581
1346.788818	1077.649292
1345.893188	1091.417603
1344.997314	1054.945679
1344.101440	1063.132324
1343.205322	1029.467773
1342.309082	1065.549927
1341.412720	1051.418945
1340.516113	964.794006
1339.619385	978.564941
1338.722534	1106.616333
1337.825439	1033.961792
1336.928223	989.197327
1336.030884	933.304565
1335.133423	952.639771
1334.235718	1033.238281
1333.337891	949.521851
1332.439941	907.595154
1331.541870	932.488220
1330.643555	910.060547
1329.745117	971.117859
1328.846436	990.422424
1327.947754	876.203491
1327.048828	942.796814
1326.149780	909.264221
1325.250488	923.005676
1324.351074	917.284729
1323.451538	842.086670
1322.551880	880.840698
1321.651978	833.457153
1320.751953	880.532104
1319.851807	847.051270
1318.951416	849.679626
1318.050903	830.097046
1317.150269	846.606140
1316.249512	832.581421
1315.348511	896.255615
1314.447388	843.386841
1313.546021	809.953308
1312.644653	798.718018
1311.743042	770.849609
1310.841309	787.348572
1309.939331	828.788574
1309.037231	767.672852
1308.135010	739.829346
1307.232666	711.995483
1306.330078	758.959351
1305.427368	714.515259
1304.524536	791.920593
1303.621460	722.570007
1302.718262	744.587158
1301.814941	733.386536
1300.911499	680.684692
1300.007813	719.296631
1299.104004	655.551453
1298.199951	757.761963
1297.295898	743.803650
1296.391602	801.729370
1295.487061	895.568054
1294.582520	928.574219
1293.677734	978.147522
1292.772827	817.742493
1291.867676	817.598938
1290.962402	776.030334
1290.057007	690.297180
1289.151489	728.825867
1288.245728	712.136536
1287.339844	656.816833
1286.433838	618.071960
1285.527588	623.480957
1284.621216	593.030334
1283.714722	598.441772
1282.808105	587.307373
1281.901245	589.960999
1280.994263	589.857361
1280.087036	636.603333
1279.179810	589.650085
1278.272217	611.585571
1277.364624	628.004517
1276.456787	614.124573
1275.548828	630.537231
1274.640747	635.932312
1273.732544	553.246399
1272.824097	599.932922
1271.915405	583.318420
1271.006714	605.223999
1270.097778	528.102600
1269.188721	585.760803
1268.279541	558.162109
1267.370117	591.052979
1266.460571	585.451782
1265.550781	574.356323
1264.640991	557.769531
1263.730957	582.395752
1262.820679	637.226624
1261.910400	565.713684
1260.999878	543.648560
1260.089233	560.024170
1259.178345	579.138794
1258.267334	540.617371
1257.356201	551.497253
1256.444824	537.683777
1255.533447	562.274292
1254.621704	512.813599
1253.709961	586.752869
1252.797974	556.494690
1251.885864	556.396667
1250.973633	534.375610
1250.061157	558.940613
1249.148560	520.490295
1248.235840	498.487091
1247.322876	498.399261
1246.409790	484.621613
1245.496582	525.598633
1244.583130	520.031982
1243.669556	541.832581
1242.755859	506.168518
1241.841919	495.137054
1240.927856	492.314728
1240.013672	492.227966
1239.099365	530.418823
1238.184814	516.657166
1237.270142	527.498718
1236.355225	543.801758
1235.440186	513.651794
1234.525024	508.097778
1233.609741	527.126770
1232.694214	521.572327
1231.778564	458.684296
1230.862671	535.037292
1229.946777	513.108521
1229.030640	491.187469
1228.114258	493.829132
1227.197876	537.387756
1226.281128	537.292908
1225.364380	509.929169
1224.447388	518.018433
1223.530273	479.763977
1222.613037	471.502960
1221.695557	534.094055
1220.777954	476.785522
1219.860229	454.909302
1218.942261	482.064240
1218.024170	509.209625
1217.105957	492.784302
1216.187500	481.808960
1215.268921	492.610321
1214.350220	462.590973
1213.431274	522.363403
1212.512207	497.789703
1211.593018	494.982086
1210.673706	475.860229
1209.754150	475.776184
1208.834351	475.692139
1207.914551	459.301514
1206.994507	483.675903
1206.074219	491.740814
1205.153931	459.058075
1204.233398	458.976959
1203.312744	404.588654
1202.391846	521.256958
1201.470825	431.589630
1200.549683	480.363892
1199.628296	485.705872
1198.706787	431.360779
1197.785156	452.984344
1196.863281	455.616241
1195.941284	463.670258
1195.019165	490.698669
1194.096802	447.242889
1193.174438	449.873871
1192.251709	433.536652
1191.328979	438.878204
1190.406006	455.052460
1189.482788	449.555603
1188.559570	452.183746
1187.636108	438.567688
1186.712402	446.610260
1185.788696	451.943726
1184.864746	424.806030
1183.940552	424.730865
1183.016357	451.703796
1182.091919	421.876160
1181.167236	421.801483
1180.242554	440.650421
1179.317505	421.652130
1178.392456	464.816162
1177.467163	407.993103
1176.541748	424.129608
1175.616211	415.951538
1174.690430	415.877869
1173.764526	415.804199
1172.838501	402.232819
1171.912231	412.957825
1170.985840	410.186066
1170.059204	407.415283
1169.132446	428.924194
1168.205566	356.024902
1167.278564	428.772186
1166.351318	447.569580
1165.423828	401.662964
1164.496338	393.506012
1163.568604	409.604858
1162.640747	431.086578
1161.712646	395.990570
1160.784424	406.693695
1159.856079	436.243042
1158.927490	409.241852
1157.998779	363.406921
1157.069946	355.268188
1156.140869	365.968994
1155.211670	357.832642
1154.282349	379.289124
1153.352783	384.600861
1152.423096	352.264160
1151.493164	416.727142
1150.563232	392.460449
1149.632935	373.577545
1148.702637	392.321167
1147.772095	351.951721
1146.841431	386.809540
1145.910522	373.312378
1144.979492	362.505219
1144.048340	332.908630
1143.116943	389.219208
1142.185425	343.525604
1141.253784	367.614471
1140.321899	375.597717
1139.389893	386.260468
1138.457764	375.464294
1137.525391	340.539246
1136.592896	380.692810
1135.660278	343.098755
1134.727417	388.597504
1133.794434	434.080078
1132.861206	415.249725
1131.927856	449.997131
1130.994385	508.834900
1130.060669	514.099670
1129.126831	570.227966
1128.192871	623.659607
1127.258667	527.206482
1126.324341	551.194031
1125.389893	492.241119
1124.455200	457.381866
1123.520386	382.420929
1122.585327	368.983948
1121.650146	395.651550
1120.714844	384.889801
1119.779297	398.183197
1118.843628	352.690155
1117.907837	349.955994
1116.971802	339.209961
1116.035645	365.854309
1115.099365	339.089264
1114.162842	341.698456
1113.226196	333.630493
1112.289307	330.902557
1111.352417	333.511780
1110.415161	330.784790
1109.477905	322.724487
1108.540405	336.000366
1107.602661	330.608185
1106.664917	306.557831
1105.726807	325.159973
1104.788696	319.772522
1103.850342	330.372772
1102.911865	346.296875
1101.973145	327.591766
1101.034302	306.230438
1100.095337	308.838287
1099.156128	303.459412
1098.216797	327.358398
1097.277344	300.690308
1096.337646	311.278748
1095.397827	345.803650
1094.457764	300.529602
1093.517700	300.476044
1092.577271	321.691345
1091.636841	295.052673
1090.696167	305.630737
1089.755249	326.833710
1088.814209	302.865051
1087.873047	289.529877
1086.931763	292.134003
1085.990234	315.979523
1085.048584	318.578003
1084.106689	318.521179
1083.164673	297.233429
1082.222412	313.100800
1081.280151	299.780304
1080.337524	299.726837
1079.394897	312.933258
1078.452026	296.968414
1077.509033	288.962311
1076.565796	286.260193
1075.622437	288.859192
1074.678955	288.807648
1073.735229	283.457825
1072.791382	291.353241
1071.847290	286.004822
1070.903076	278.010620
1069.958740	262.077515
1069.014160	296.438782
1068.069458	277.861725
1067.124512	291.041260
1066.179565	288.343933
1065.234253	327.965698
1064.288940	354.351257
1063.343384	393.947052
1062.397583	372.728943
1061.451660	393.806335
1060.505615	351.455597
1059.559448	367.245117
1058.613037	369.821075
1057.666382	324.856171
1056.719727	330.079376
1055.772827	300.978607
1054.825684	279.807281
1053.878418	292.953369
1052.931030	277.068512
1051.983398	282.295532
1051.035645	263.780426
1050.087769	242.634598
1049.139648	224.133179
1048.191406	255.729782
1047.242920	263.591797
1046.294312	258.273773
1045.345581	258.227570
1044.396606	252.912369
1043.447510	242.330994
1042.498291	265.989685
1041.548828	255.409744
1040.599121	257.996674
1039.649414	263.214813
1038.699341	239.482605
1037.749268	242.070953
1036.798950	236.766159
1035.848511	249.875092
1034.897827	268.238922
1033.947021	260.302948
1032.996094	286.544861
1032.044922	262.838135
1031.093506	226.000305
1030.142090	225.959839
1029.190430	241.681198
1028.238525	241.637909
1027.286499	249.472717
1026.334351	231.049133
1025.381958	267.758972
1024.429443	223.092499
1023.476807	233.549118
1022.523926	223.012573
1021.570923	233.465439
1020.617737	233.423599
1019.664368	254.359909
1018.710815	220.230957
1017.757080	293.588654
1016.803223	230.635452
1015.849121	264.659149
1014.894897	225.312927
1013.940491	254.086472
1012.985962	238.327042
1012.031189	243.521317
1011.076294	214.679230
1010.121216	227.728577
1009.165955	238.156128
1008.210510	214.563736
1007.254944	243.303024
1006.299133	230.180923
1005.343201	245.830963
1004.387085	237.942596
1003.430786	188.228500
1002.474365	222.174316
1001.517700	253.494614
1000.560913	222.094589
999.603943	216.829910
998.646790	227.238754
997.689514	224.586487
996.731995	237.601181
995.774353	253.221725
994.816528	211.415222
993.858521	245.302017
992.900330	255.694473
991.942017	237.387955
990.983459	219.087982
990.024780	265.987640
989.065918	252.903580
988.106873	237.217438
987.147705	224.143250
986.188293	221.497131
985.228760	226.668091
984.269043	190.158585
983.309143	237.004410
982.349060	244.773743
981.388794	257.747284
980.428406	221.258408
979.467834	229.026352
978.507019	236.791504
977.546082	236.748932
976.585022	215.897018
975.623718	218.458893
974.662292	241.821716
973.700623	233.978928
972.738831	181.950882
971.776855	244.290100
970.814758	223.459259
969.852417	215.625381
968.889954	194.807159
967.927246	231.129562
966.964417	225.895004
966.001404	194.702026
965.038208	236.195953
964.074890	210.202515
963.111328	246.489441
962.147644	233.474289
961.183777	217.870117
960.219727	225.610565
959.255493	202.235138
958.291077	225.529343
957.326538	215.121445
956.361755	230.630859
955.396851	235.771103
954.431763	220.186096
953.466492	235.686188
952.501038	240.822723
951.535461	235.601303
950.569641	248.501648
949.603699	248.456879
948.637573	219.948227
947.671265	212.147125
946.704773	178.481873
945.738098	225.001816
944.771240	227.547028
943.804260	227.506012
942.837097	248.143646
941.869751	211.917816
940.902222	204.127930
939.934509	214.424850
938.966614	235.049927
937.998535	209.182541
937.030334	193.652603
936.061951	219.433380
935.093323	242.623734
934.124573	224.515518
933.155640	216.734497
932.186584	211.535980
931.217285	221.814789
930.247864	229.511108
929.278198	229.469696
928.308411	221.694748
927.338440	237.119034
926.368286	208.730164
925.397949	208.692490
924.427429	236.990677
923.456787	231.796844
922.485901	234.330063
921.514893	244.586121
920.543701	221.374832
919.572327	223.908524
918.600769	236.734070
917.629028	213.536743
916.657104	239.220840
915.685059	223.746826
914.712769	197.993027
913.740356	257.087372
912.767761	213.343964
911.794983	239.004868
910.822021	233.822723
909.848877	259.470642
908.875549	228.601120
907.902039	238.832169
906.928406	241.356628
905.954590	236.178680
904.980530	228.435898
904.006348	225.828384
903.031982	202.695648
902.057434	233.442642
901.082703	189.798157
900.107849	233.358231
899.132751	210.240829
898.157532	207.639359
897.182068	207.601807
896.206482	228.064423
895.230713	228.023163
894.254761	253.597870
893.278625	233.062943
892.302307	217.656769
891.325806	253.460251
890.349182	243.175415
889.372314	209.860794
888.395325	214.940445
887.418091	191.876373
886.440735	191.841644
885.463196	232.725723
884.485474	240.354492
883.507568	250.536972
882.529480	224.931244
881.551270	222.334946
880.572815	206.964005
879.594238	219.699768
878.615417	217.105804
877.636475	224.727646
876.657349	224.686935
875.677979	242.515823
874.698486	214.396194
873.718811	224.564850
872.739014	221.972748
871.758972	221.932526
870.778748	221.892303
869.798401	232.052185
868.817810	214.163193
867.837097	244.713577
866.856140	208.988297
865.875061	262.462097
864.893799	211.460236
863.912354	229.252655
862.930725	239.398254
861.948914	246.993820
860.966919	234.219696
859.984741	254.540451
859.002441	246.859467
858.019897	218.825394
857.037231	241.681870
856.054321	231.463791
855.071289	223.792511
854.088074	198.325546
853.104614	231.337830
852.121033	231.295853
851.137268	226.171371
850.153320	243.915848
849.169189	208.306976
848.184937	259.066528
847.200439	236.164825
846.215759	238.660889
845.230896	246.233017
844.245911	225.884125
843.260681	205.542603
842.275330	177.597153
841.289795	210.541229
840.304016	228.256256
839.318115	205.393311
838.332031	212.961777
837.345764	225.597092
836.359314	233.159119
835.372681	210.311844
834.385864	243.208054
833.398865	222.900208
832.411743	235.522186
831.424377	220.287155
830.436829	240.499725
829.449158	232.862671
828.461243	220.167053
827.473206	222.657227
826.484924	250.443832
825.496521	209.929886
824.507935	237.708679
823.519104	227.552032
822.530151	227.510651
821.541016	202.194901
820.551697	229.954865
819.562195	222.333481
818.572510	197.032471
817.582642	232.354980
816.592590	237.362991
815.602356	229.745758
814.611938	254.946136
813.621399	259.947266
812.630615	237.190247
811.639648	196.781616
810.648560	237.103912
809.657227	237.060745
808.665771	214.324417
807.674072	226.890411
806.682251	231.890198
805.690186	236.888138
804.697998	216.687988
803.705566	251.916885
802.713013	226.683899
801.720276	203.978348
800.727356	239.190277
799.734253	213.973373
798.740906	241.620010
797.747437	249.125244
796.753784	249.079849
795.759949	238.972458
794.765930	259.049225
793.771729	253.972855
792.777344	256.440674
791.782776	233.770950
790.788025	256.347198
789.793091	221.121964
788.798035	243.692276
787.802734	218.529510
786.807251	231.046539
785.811584	205.895233
784.815796	241.004105
783.819763	208.330139
782.823547	243.425751
781.827148	243.381332
780.830627	235.811050
779.833862	243.292542
778.836975	223.186447
777.839844	220.638474
776.842529	225.611801
775.845093	238.102325
774.847412	213.000046
773.849609	240.520844
772.851563	212.922287
771.853394	210.378906
770.854980	240.389145
769.856445	205.294907
768.857666	200.251144
767.858765	252.770889
766.859680	252.724731
765.860352	257.682098
764.860901	252.632431
763.861206	250.085419
762.861389	272.543304
761.861389	229.994537
760.861145	244.949417
759.860779	222.413422
758.860168	234.865631
757.859436	259.803833
756.858521	227.286819
755.857361	239.731277
754.856079	222.210251
753.854614	232.154785
752.852905	217.137360
751.851074	254.528290
750.848999	217.057968
749.846802	214.523804
748.844421	261.870697
747.841797	211.951797
746.839050	211.913040
745.836121	219.352188
744.832947	249.218262
743.829651	256.647858
742.826111	219.231842
741.822449	231.645798
740.818604	226.622696
739.814514	244.010559
738.810303	263.881470
737.805847	241.432251
736.801270	226.456848
735.796448	251.296204
734.791504	261.200714
733.786316	238.768356
732.781006	218.830917
731.775452	271.002319
730.769775	231.179810
729.763855	231.137482
728.757751	248.489410
727.751526	243.475021
726.745056	260.818298
725.738403	216.067017
724.731628	218.510498
723.724609	245.779282
722.717407	225.876938
721.710083	233.280670
720.702515	230.756668
719.694763	208.387192
718.686829	240.593475
717.678711	255.428726
716.670410	223.149231
715.661987	267.730011
714.653320	232.981537
713.644470	257.719543
712.635437	250.239441
711.626221	242.762054
710.616821	217.950439
709.607178	272.388092
708.597412	242.628510
707.587463	220.305893
706.577332	237.589722
705.567017	259.816101
704.556458	220.184662
703.545776	234.985458
702.534912	232.469254
701.523804	249.734955
700.512573	257.105621
699.501099	232.341293
698.489502	269.367584
697.477661	244.610046
696.465698	222.331940
695.453491	254.399841
694.441101	232.128113
693.428589	209.864532
692.415833	217.231613
691.402893	227.064072
690.389771	236.892914
689.376465	249.185303
688.362976	226.938980
687.349304	273.756531
686.335449	229.321426
685.321411	229.279297
684.307190	258.816162
683.292725	258.768616
682.278137	241.472977
681.263367	258.673492
680.248352	258.625946
679.233215	238.877213
678.217834	224.060104
677.202332	253.559860
676.186584	258.435822
675.170654	260.849152
674.154541	216.514206
673.138306	238.613815
672.121826	236.110443
671.105164	233.607986
670.088318	223.730698
669.071289	245.812683
668.054016	231.021423
667.036621	248.179474
666.019043	226.022873
665.001282	253.000793
663.983276	248.042496
662.965149	245.541443
661.946777	218.491669
660.928223	215.996933
659.909546	223.319351
658.890625	240.453491
657.871521	242.862381
656.852234	262.439301
655.832764	242.772964
654.813110	242.728256
653.793274	237.780853
652.773254	242.638855
651.752991	254.846405
650.732605	252.349457
649.711975	220.458908
648.691223	220.418304
647.670227	239.966812
646.649048	252.163544
645.627747	247.221603
644.606201	237.386902
643.584473	244.683655
642.562561	244.638565
641.540466	269.052826
640.518127	239.657410
639.495667	251.838394
638.473022	237.124481
637.450134	256.633820
636.427063	241.924408
635.403870	207.674561
634.380432	249.163528
633.356812	239.348251
632.333008	261.281006
631.309021	266.115662
630.284851	244.097778
629.260498	226.969055
628.235901	268.408478
627.211182	241.523071
626.186218	251.235199
625.161133	248.750122
624.135803	241.389374
623.110291	282.787872
622.084595	255.924530
621.058716	294.868103
620.032654	289.940735
619.006409	248.474731
617.979919	260.606750
616.953308	241.077606
615.926453	238.598404
614.899414	270.199310
613.872253	248.245392
612.844849	253.066193
611.817261	274.915375
610.789490	226.215973
609.761475	248.062012
608.733337	248.016174
607.705017	262.556824
606.676453	260.077698
605.647705	238.157974
604.618774	247.832886
603.589722	269.650635
602.560425	225.881744
601.530884	254.980637
600.501221	288.924622
599.471375	264.596313
598.441284	232.995865
597.411011	262.071869
596.380615	240.188126
595.349976	249.846481
594.319153	249.800278
593.288147	278.851624
592.256897	247.283508
591.225525	271.476776
590.193970	271.426544
589.162170	242.300278
588.130188	254.368210
587.098022	288.230621
586.065674	256.695740
585.033142	271.175476
584.000427	246.917664
582.967468	254.132889
581.934387	273.444763
580.901062	261.297058
579.867554	304.790131
578.833862	273.292908
577.799988	270.824219
576.765930	280.444550
575.731628	302.147217
574.697205	265.840302
573.662537	277.872467
572.627747	251.246811
571.592712	282.600281
570.557434	275.303101
569.522034	229.376755
568.486450	267.958954
567.450623	279.977295
566.414673	275.099091
565.378479	255.746475
564.342102	241.225540
563.305542	270.122528
562.268799	270.072449
561.231812	257.967804
560.194702	289.256012
559.157349	296.432434
558.119812	313.244476
557.082092	262.594727
556.044189	269.772064
555.006042	255.272629
553.967773	276.895355
552.929260	262.399933
551.890625	296.047760
550.851746	271.928345
549.812683	303.155884
548.773376	257.394135
547.733948	276.587189
546.694275	274.131195
545.654419	317.356171
544.614441	293.259583
543.574158	288.398499
542.533752	295.553558
541.493164	295.498688
540.452332	271.423981
539.411316	271.373596
538.370178	295.334076
537.328735	288.077301
536.287170	261.621613
535.245422	292.769775
534.203430	280.718872
533.161255	266.273529
532.118896	297.403473
531.076355	287.756317
530.033630	311.678070
528.990723	285.252289
527.947571	266.026215
526.904236	268.372955
525.860718	275.510284
524.817017	289.830841
523.773132	256.249054
522.729004	313.667145
521.684692	277.699402
520.640198	270.467224
519.595520	272.809998
518.550659	291.900238
517.505615	275.100677
516.460327	313.317261
515.414856	301.302521
514.369202	298.855621
513.323364	274.896027
512.277283	317.864075
511.231079	303.467865
510.184631	272.353516
509.138000	269.914215
508.091187	274.640320
507.044159	293.691040
505.996948	296.023651
504.949554	295.968536
503.901947	252.958267
502.854126	274.384735
501.806152	286.261200
500.757965	276.667633
499.709564	290.923828
