#Wave		#Intensity
3200.600830	25.259113
3200.007080	0.000000
3199.413086	29.464512
3198.819092	0.000000
3198.224854	29.455606
3197.630615	-8.414616
3197.036377	25.240030
3196.442139	-16.824142
3195.847656	21.027000
3195.252930	21.023821
3194.658447	0.000000
3194.063721	-25.220957
3193.468750	-4.202857
3192.873779	16.808887
3192.278809	8.403172
3191.683838	21.004755
3191.088623	21.001577
3190.493164	16.798721
3189.897949	4.199045
3189.302490	-16.793640
3188.706787	16.791100
3188.111328	4.197140
3187.515381	20.982525
3186.919678	-16.783482
3186.323730	8.390471
3185.727783	20.973003
3185.131592	8.387932
3184.535400	20.966658
3183.939209	4.192697
3183.342773	12.576187
3182.746338	29.339996
3182.149902	4.190794
3181.553223	20.950798
3180.956543	-29.326677
3180.359619	0.000000
3179.762695	12.564772
3179.165771	12.562869
3178.568604	20.934946
3177.971436	12.559066
3177.374268	20.928608
3176.776855	4.185088
3176.179443	-4.184454
3175.581787	12.551461
3174.984131	16.732748
3174.386475	-4.182554
3173.788574	12.545760
3173.190674	20.906435
3172.592773	0.000000
3171.994629	-25.080122
3171.396484	20.896936
3170.798340	0.000000
3170.199951	12.534364
3169.601563	8.354977
3169.002930	-8.353711
3168.404297	12.528667
3167.805664	4.175590
3167.206787	-37.574615
3166.607910	25.045948
3166.008789	8.347384
3165.409912	8.346119
3164.810547	4.172427
3164.211426	4.171795
3163.612061	0.000000
3163.012695	16.682121
3162.413086	8.339796
3161.813477	4.169266
3161.213623	12.505902
3160.614014	-8.336004
3160.013916	20.836851
3159.414063	0.000000
3158.813965	0.000000
3158.213867	4.165475
3157.613525	0.000000
3157.013184	0.000000
3156.412598	8.327161
3155.812256	12.488847
3155.211426	4.162318
3154.610840	20.808432
3154.010010	8.322110
3153.409180	12.481272
3152.808105	-8.319586
3152.207031	12.477486
3151.605957	8.317062
3151.004639	0.000000
3150.403320	0.000000
3149.801758	8.313277
3149.200195	-8.312016
3148.598633	24.932262
3147.996826	16.618986
3147.395020	0.000000
3146.793213	4.153486
3146.191162	20.764277
3145.589111	0.000000
3144.986816	20.757975
3144.384766	0.000000
3143.782227	41.503345
3143.179932	24.898228
3142.577393	8.298149
3141.974609	49.781334
3141.371826	8.295630
3140.769043	12.441555
3140.166260	8.293111
3139.563232	16.583702
3138.960205	4.145296
3138.356934	16.578667
3137.753662	12.432112
3137.150391	8.286816
3136.546875	16.571114
3135.943359	24.852896
3135.339600	-4.141520
3134.735840	16.563564
3134.132080	28.981833
3133.528076	0.000000
3132.924072	4.139004
3132.320068	-8.276751
3131.715820	16.550985
3131.111572	20.685589
3130.507080	4.136489
3129.902588	12.407581
3129.298096	0.000000
3128.693604	-4.134604
3128.088867	8.267950
3127.483887	16.533386
3126.878906	16.530874
3126.273926	24.792542
3125.668945	12.394386
3125.063721	24.785004
3124.458252	24.781237
3123.853027	0.000000
3123.247559	12.386850
3122.641846	8.256645
3122.036133	20.638474
3121.430420	8.254134
3120.824707	0.000000
3120.218750	16.503248
3119.612549	16.500738
3119.006592	16.498228
3118.400391	12.371789
3117.793945	20.616512
3117.187500	12.368026
3116.581055	-4.122048
3115.974609	-8.242842
3115.367920	4.120794
3114.760986	12.360501
3114.154297	0.000000
3113.547363	0.000000
3112.940186	28.828005
3112.333008	24.705959
3111.725830	12.351100
3111.118408	20.582033
3110.510986	12.347341
3109.903564	8.230308
3109.295898	0.000000
3108.688232	16.455605
3108.080566	8.226550
3107.472656	8.225297
3106.864746	8.224045
3106.256592	28.779776
3105.648438	8.221541
3105.040039	12.330434
3104.431885	8.219038
3103.823486	-12.326679
3103.214844	20.541336
3102.606201	32.861134
3101.997559	4.107016
3101.388672	8.212781
3100.779785	20.528826
3100.170898	0.000000
3099.561768	28.731602
3098.952637	16.415556
3098.343262	16.413055
3097.733887	16.410555
3097.124512	-8.204027
3096.514893	20.506945
3095.905273	8.201528
3095.295410	-4.100139
3094.685791	12.298543
3094.075684	4.098889
3093.465820	20.491323
3092.855713	8.195280
3092.245361	16.388063
3091.635254	20.481956
3091.024658	4.095767
3090.414307	32.761139
3089.803711	12.283554
3089.193115	16.375576
3088.582275	-4.093270
3087.971436	12.277937
3087.360596	12.276065
3086.749512	16.365591
3086.138428	12.272322
3085.527100	20.450750
3084.915771	20.447632
3084.304443	20.444513
3083.692871	8.176558
3083.081299	12.262966
3082.469482	16.348127
3081.857910	20.432043
3081.245850	20.428926
3080.634033	-16.340647
3080.021973	8.169077
3079.409668	28.587408
3078.797607	8.166585
3078.185059	36.744022
3077.572754	16.328186
3076.960205	-12.244270
3076.347656	28.565603
3075.734863	28.561245
3075.122070	16.318220
3074.509033	0.000000
3073.895996	4.078310
3073.282959	4.077687
3072.669922	28.539454
3072.056641	20.382212
3071.443115	-4.075820
3070.829834	20.375990
3070.216064	32.596603
3069.602539	24.443722
3068.988770	0.000000
3068.375000	40.727093
3067.760986	16.288349
3067.146973	16.285862
3066.532715	12.212531
3065.918701	4.070222
3065.304199	28.487202
3064.689941	20.344894
3064.075439	20.341785
3063.460693	16.270943
3062.846191	16.268457
3062.231445	12.199479
3061.616455	12.197615
3061.001465	32.522003
3060.386475	8.129258
3059.771240	8.128016
3059.156006	28.443710
3058.540771	0.000000
3057.925293	16.248581
3057.309814	4.061524
3056.694092	4.060904
3056.078369	20.301414
3055.462646	8.119325
3054.846680	-4.059042
3054.230713	20.292107
3053.614502	12.173402
3052.998291	24.343082
3052.382080	24.339359
3051.765625	16.223759
3051.149170	20.276598
3050.532715	28.382896
3049.916016	16.216318
3049.299316	4.053459
3048.682373	20.264196
3048.065430	32.417755
3047.448486	4.051600
3046.831299	20.254900
3046.214111	28.352522
3045.596680	8.099482
3044.979248	16.196486
3044.361816	0.000000
3043.744141	24.287294
3043.126465	20.236315
3042.508545	8.093287
3041.890869	20.230122
3041.272705	8.090811
3040.654785	32.358288
3040.036621	20.220837
3039.418213	16.174192
3038.799805	12.128788
3038.181396	8.084620
3037.562988	20.208458
3036.944336	8.082146
3036.325439	20.202272
3035.706543	12.119507
3035.087646	12.117652
3034.468750	12.115796
3033.849609	24.227882
3033.230469	20.186810
3032.611084	16.146975
3031.991699	8.072251
3031.372070	20.177538
3030.752441	24.209337
3030.132813	12.102815
3029.513184	12.100961
3028.893066	0.000000
3028.273193	24.194508
3027.653076	36.286201
3027.032959	40.311825
3026.412598	4.030565
3025.792480	36.269524
3025.171875	16.117319
3024.551270	20.143562
3023.930664	20.140474
3023.310059	20.137388
3022.689209	24.161163
3022.068115	20.131216
3021.447266	12.076879
3020.826172	8.050018
3020.204834	24.146353
3019.583496	28.166428
3018.962158	8.046317
3018.340576	8.045083
3017.718994	20.109625
3017.097412	28.149158
3016.475586	12.062076
3015.853760	20.100376
3015.231689	20.097294
3014.609619	12.056527
3013.987549	28.127583
3013.365234	12.052829
3012.742920	12.050981
3012.120361	24.098265
3011.497803	12.047284
3010.875244	12.045436
3010.252441	16.058117
3009.629639	32.111309
3009.006836	12.039893
3008.383789	16.050728
3007.760498	20.060331
3007.137451	36.103054
3006.514160	0.000000
3005.890625	-4.010220
3005.267090	4.009604
3004.643555	4.008989
3004.019775	36.075363
3003.395996	20.038792
3002.772217	16.028572
3002.148193	24.039167
3001.524170	36.053215
3000.899902	20.026489
3000.275635	4.004683
2999.651367	36.036613
2999.026855	12.010360
2998.402344	16.011354
2997.777588	12.006672
2997.152832	12.004828
2996.528076	16.003979
2995.903076	32.003044
2995.278076	27.998362
2994.653076	7.998303
2994.027832	39.985374
2993.402344	27.985462
2992.777100	23.983854
2992.151367	15.986779
2991.525879	27.972567
2990.900146	3.995467
2990.274414	23.969118
2989.648438	11.982718
2989.022461	31.949003
2988.396240	27.951082
2987.770264	35.931583
2987.143799	39.917847
2986.517578	15.964684
2985.891113	15.962230
2985.264404	11.969832
2984.637695	23.935986
2984.010986	35.898457
2983.384033	19.940521
2982.757080	7.974982
2982.130127	15.947513
2981.502930	31.890121
2980.875732	3.985652
2980.248291	35.865353
2979.620850	15.937706
2978.993408	11.951442
2978.365723	15.932804
2977.738037	31.860708
2977.110107	11.945928
2976.482178	39.813633
2975.854248	27.865257
2975.226074	19.900694
2974.597900	-7.959053
2973.969482	23.873486
2973.341309	15.913208
2972.712646	3.977690
2972.083984	19.885389
2971.455322	23.858795
2970.826660	19.879269
2970.197754	27.826694
2969.568604	0.000000
2968.939697	31.792149
2968.310547	19.867035
2967.681152	7.945590
2967.051758	43.694019
2966.422363	31.772577
2965.792725	19.854805
2965.163086	51.614544
2964.533203	43.667122
2963.903564	23.814762
2963.273438	27.779612
2962.643311	31.743238
2962.013184	51.574818
2961.383057	11.900048
2960.752686	51.558933
2960.122314	27.758226
2959.491699	39.648502
2958.861084	43.606636
2958.230225	31.709032
2957.599609	19.815092
2956.968506	19.812038
2956.337646	51.503365
2955.706299	39.611870
2955.075195	55.448074
2954.443848	15.839866
2953.812500	39.593563
2953.180908	31.669968
2952.549316	35.623222
2951.917725	15.830104
2951.285889	39.569160
2950.653809	31.650450
2950.021973	75.158226
2949.389893	47.461037
2948.757568	43.499245
2948.125244	47.446407
2947.492920	51.392349
2946.860352	35.573833
2946.227783	67.184662
2945.595215	47.417152
2944.962402	59.262299
2944.329590	63.203373
2943.696533	43.445618
2943.063477	67.132874
2942.430420	51.328983
2941.797119	55.268841
2941.163574	82.890472
2940.530273	63.144905
2939.896729	90.756798
2939.262939	94.688141
2938.629150	74.949875
2937.995361	106.491287
2937.361328	78.870262
2936.727295	114.344238
2936.093262	102.499702
2935.458984	114.308952
2934.824707	106.409149
2934.190186	74.868958
2933.555664	110.316170
2932.921143	126.056160
2932.286377	177.239120
2931.651367	129.955292
2931.016602	161.434677
2930.381592	157.472931
2929.746338	137.767548
2929.111084	157.424316
2928.475830	157.400009
2927.840332	145.572525
2927.204834	145.550049
2926.569336	180.926163
2925.933594	173.033081
2925.297607	157.278503
2924.661865	161.185577
2924.025879	192.606659
2923.389648	168.996063
2922.753418	188.617630
2922.117188	188.588486
2921.480713	180.702713
2920.844238	176.747086
2920.207764	121.740295
2919.571045	192.398468
2918.934082	172.739273
2918.297363	157.011444
2917.660156	141.288452
2917.023193	176.583282
2916.385986	141.244797
2915.748779	192.220139
2915.111328	156.890152
2914.473877	145.100952
2913.836182	176.446854
2913.198486	160.737839
2912.560791	168.552643
2911.922852	203.799591
2911.284912	168.500534
2910.646729	191.982544
2910.008545	203.705078
2909.370361	215.423965
2908.731934	203.642075
2908.093506	172.285873
2907.455078	199.664108
2906.816406	223.119492
2906.177490	215.257431
2905.538574	207.397812
2904.899658	207.365723
2904.260498	222.981461
2903.621338	258.149109
2902.982178	258.109192
2902.342773	293.260498
2901.703369	281.486511
2901.063721	250.171524
2900.424072	281.399414
2899.784424	316.525360
2899.144531	273.498108
2898.504639	300.801331
2897.864502	308.566589
2897.224365	234.318100
2896.583984	277.233490
2895.943848	269.382385
2895.303223	296.665100
2894.662842	316.133606
2894.021973	277.061859
2893.381348	308.232361
2892.740479	300.382507
2892.099609	378.345337
2891.458496	319.788788
2890.817383	323.638519
2890.176025	346.980347
2889.534668	362.518799
2888.893311	323.488190
2888.251709	319.541229
2887.610107	401.312775
2886.968262	319.442230
2886.326416	370.028168
2885.684570	327.132111
2885.042480	404.957977
2884.400391	381.535889
2883.758057	455.436554
2883.115723	467.042023
2882.473389	494.209534
2881.830811	529.150269
2881.188232	579.640930
2880.545410	672.901611
2879.902588	793.356384
2879.259766	804.898621
2878.616699	824.212830
2877.973633	730.792358
2877.330322	738.452271
2876.687012	648.960083
2876.043457	555.610168
2875.399902	543.869690
2874.756348	504.943542
2874.112549	454.378693
2873.468750	434.893372
2872.824707	376.590302
2872.180664	384.295441
2871.536621	368.711151
2870.892334	357.012268
2870.248047	337.557037
2869.603760	337.504700
2868.958984	318.058502
2868.314453	333.521820
2867.669678	314.082275
2867.024902	341.172241
2866.379883	290.726685
2865.734863	310.060333
2865.089844	329.388000
2864.444580	321.587769
2863.799316	352.529449
2863.153809	298.247864
2862.508301	325.310791
2861.862549	333.004608
2861.216797	402.640717
2860.571045	359.997833
2859.925049	332.849548
2859.279053	328.928131
2858.632813	441.082153
2857.986572	417.802429
2857.340332	351.982574
2856.693848	425.407379
2856.047363	440.808258
2855.400635	425.275238
2854.753906	432.940277
2854.107178	421.278229
2853.460205	479.177856
2852.813232	405.692413
2852.166016	552.428589
2851.518799	475.092041
2850.871338	556.118896
2850.223877	513.557800
2849.576416	567.528320
2848.928711	571.300293
2848.281006	663.840393
2847.633301	605.853149
2846.985352	652.059082
2846.337158	705.966064
2845.688965	767.570557
2845.040771	752.025085
2844.392578	713.348816
2843.743896	732.514648
2843.095459	663.015442
2842.446777	639.787537
2841.798096	628.127441
2841.149170	547.117920
2840.500244	616.375061
2839.851074	527.689087
2839.202148	516.053589
2838.552734	485.168976
2837.903320	400.394653
2837.253906	392.633667
2836.604492	350.236359
2835.954834	346.333710
2835.304932	315.499420
2834.655029	300.062531
2834.005127	265.398621
2833.354980	199.979446
2832.704834	219.174133
2832.054688	196.072662
2831.404297	184.510254
2830.753906	172.951447
2830.103271	157.553467
2829.452637	180.581970
2828.801758	153.662857
2828.150879	134.434082
2827.500000	103.690147
2826.848877	65.276230
2826.197754	107.497047
2825.546387	72.933075
2824.895020	95.949631
2824.243408	84.422531
2823.591797	72.899010
2822.940186	88.232437
2822.288330	84.383102
2821.636475	49.854977
2820.984619	72.853615
2820.332520	61.340862
2819.680176	61.331306
2819.028076	57.489147
2818.375488	61.312202
2817.723145	72.796898
2817.070557	80.447197
2816.417725	68.944000
2815.764893	72.762886
2815.112061	68.922523
2814.458984	57.426483
2813.805908	53.589703
2813.152832	65.063065
2812.499512	57.399643
2811.845947	72.694885
2811.192383	30.603601
2810.538818	45.898251
2809.885010	34.418320
2809.231201	42.060280
2808.577393	38.230659
2807.923340	34.402229
2807.269287	19.109369
2806.614990	38.212780
2805.960693	34.386139
2805.306152	26.740606
2804.651611	34.375420
2803.997070	45.826744
2803.342285	53.456196
2802.687500	53.447861
2802.032471	53.439526
2801.377441	49.614677
2800.722412	49.606937
2800.067139	38.153229
2799.411621	3.814728
2798.756348	64.840256
2798.100586	19.067688
2797.445068	41.942371
2796.789307	72.434608
2796.133301	30.494024
2795.477539	22.866949
2794.821289	26.673944
2794.165283	60.959499
2793.509033	53.331238
2792.852539	34.279018
2792.196045	49.506409
2791.539551	34.268318
2790.882813	41.876961
2790.226074	34.257618
2789.569092	49.475502
2788.912109	26.636496
2788.255127	15.218478
2787.597900	38.040257
2786.940430	53.248043
2786.283203	57.042564
2785.625488	57.033657
2784.968018	34.214851
2784.310303	38.010563
2783.652588	49.406013
2782.994629	37.998688
2782.336426	53.189854
2781.678467	53.181545
2781.020264	56.971325
2780.361816	53.164932
2779.703369	26.578312
2779.044922	53.148319
2778.386230	45.548584
2777.727539	41.746346
2777.068604	49.328880
2776.409668	49.321171
2775.750732	30.346745
2775.091553	41.720253
2774.432373	30.337259
2773.772949	45.498775
2773.113525	30.327776
2772.453857	37.903793
2771.794189	37.897869
2771.134521	45.470333
2770.474609	49.251823
2769.814697	49.244122
2769.154541	26.511921
2768.494385	56.802372
2767.833984	49.221024
2767.173584	18.928204
2766.513184	41.635532
2765.852539	41.629021
2765.191895	37.838646
2764.531006	41.615997
2763.870117	30.261446
2763.209229	37.820889
2762.548096	45.377968
2761.886719	49.151775
2761.225586	49.144081
2760.563965	45.356670
2759.902588	49.128704
2759.240967	34.006859
2758.579102	37.779484
2757.917236	37.773571
2757.255371	37.767658
2756.593262	33.985573
2755.931152	45.307003
2755.269043	52.849895
2754.606689	33.969616
2753.944092	41.511917
2753.281494	33.958977
2752.618896	60.362064
2751.956055	30.176306
2751.293213	22.628685
2750.630371	45.250286
2749.967285	49.013466
2749.303955	56.545139
2748.640625	45.229027
2747.977295	52.758934
2747.313721	52.750668
2746.650146	30.138517
2745.986572	52.734142
2745.322754	41.427479
2744.658691	41.420990
2743.994873	52.709362
2743.330566	41.408009
2742.666504	37.637745
2742.002197	71.500511
2741.337646	22.575571
2740.673096	60.192085
2740.008545	30.091326
2739.343750	48.890739
2738.678955	41.362602
2738.013916	37.596474
2737.348877	45.108696
2736.683594	48.860092
2736.018311	71.399704
2735.353027	67.631218
2734.687500	60.107216
2734.021973	78.878349
2733.356201	48.821796
2732.690430	48.814140
2732.024658	56.315174
2731.358643	82.582634
2730.692383	67.557014
2730.026367	78.804153
2729.359863	90.047760
2728.693604	60.022423
2728.027100	116.275200
2727.360352	56.253368
2726.693604	78.742355
2726.026855	82.479050
2725.359863	93.711487
2724.692871	89.948914
2724.025635	108.671211
2723.358398	101.160767
2722.691162	93.652679
2722.023682	119.856613
2721.355957	108.603004
2720.688477	108.585953
2720.020508	82.362625
2719.352783	101.065529
2718.684814	86.079346
2718.016602	89.807823
2717.348389	93.535126
2716.680176	78.557167
2716.011719	97.245979
2715.343262	93.491066
2714.674561	82.259216
2714.005859	93.461708
2713.337158	115.874313
2712.668213	82.220467
2711.999023	119.574615
2711.329834	93.402992
2710.660645	89.652786
2709.991455	112.048378
2709.321777	104.562057
2708.652344	78.409225
2707.982666	93.329643
2707.312988	85.849777
2706.643066	59.712200
2705.972900	89.554222
2705.302979	89.540154
2704.632813	70.874809
2703.962402	85.782341
2703.291992	82.039772
2702.621582	67.112900
2701.950928	67.102348
2701.280273	74.546448
2700.609375	67.081253
2699.938477	70.796852
2699.267334	78.236855
2698.596191	48.424721
2697.925049	96.834213
2697.253662	52.133297
2696.582031	81.910873
2695.910645	40.948994
2695.239014	59.552803
2694.567139	59.543438
2693.895264	63.254948
2693.223145	44.643528
2692.551270	59.515339
2691.878906	96.697212
2691.206543	44.622459
2690.534180	74.359062
2689.861816	63.195259
2689.189209	63.185314
2688.516357	26.013388
2687.843506	63.165428
2687.170654	52.010399
2686.497559	70.574432
2685.824463	51.994030
2685.151123	40.846020
2684.477783	59.403042
2683.804199	66.817902
2683.130615	48.249775
2682.457031	66.796860
2681.783203	40.813877
2681.109375	55.646523
2680.435303	51.928574
2679.761230	74.171997
2679.086914	70.452301
2678.412598	48.196613
2677.738281	55.602715
2677.063721	48.181431
2676.389160	29.645441
2675.714355	48.166252
2675.039551	55.567688
2674.364502	70.374649
2673.689453	55.550179
2673.014404	44.433140
2672.339111	55.532673
2671.663574	59.225517
2670.988037	74.020233
2670.312500	33.303856
2669.636719	29.598761
2668.960938	51.789665
2668.285156	29.589430
2667.609131	70.263817
2666.932861	33.277615
2666.256592	66.544739
2665.580322	59.141552
2664.903809	55.436462
2664.227295	48.037357
2663.550781	40.640587
2662.874023	18.470081
2662.197021	44.321201
2661.520020	73.857025
2660.843018	59.076298
2660.165771	47.991920
2659.488525	33.219936
2658.811035	40.595737
2658.133545	62.728970
2657.455811	47.961647
2656.778076	25.821426
2656.100342	59.011093
2655.422363	59.001781
2654.744385	62.679501
2654.066162	40.550922
2653.387939	58.973854
2652.709473	44.223408
2652.031006	44.216431
2651.352539	47.893570
2650.673828	33.151855
2649.994873	55.244370
2649.316162	36.823765
2648.636963	55.226925
2647.958008	44.174564
2647.278809	51.528854
2646.599365	36.800514
2645.919922	47.833115
2645.240479	29.431114
2644.560791	40.461391
2643.880859	62.521366
2643.201172	62.511490
2642.520996	51.471920
2641.841064	62.491745
2641.160889	51.455658
2640.480469	58.797176
2639.800049	36.742432
2639.119629	58.778603
2638.438965	40.403904
2637.758301	58.760029
2637.077393	40.391136
2636.396484	51.398777
2635.715332	33.036850
2635.034180	44.042168
2634.353027	44.035210
2633.671631	73.380417
2632.989990	47.689728
2632.308350	47.682190
2631.626709	51.341934
2630.944824	29.333609
2630.262939	47.659580
2629.581055	51.317585
2628.898926	47.644508
2628.216553	43.972591
2627.534180	58.620850
2626.851807	36.632236
2626.169189	51.277023
2625.486572	62.255108
2624.803711	36.614861
2624.120850	62.235413
2623.437988	58.565243
2622.754883	40.257233
2622.071533	58.546711
2621.388184	65.854630
2620.704834	58.528187
2620.021240	51.204060
2619.337646	32.911686
2618.653809	21.937653
2617.969971	51.179756
2617.286133	54.826775
2616.602051	47.509014
2615.917725	40.193573
2615.233398	51.147358
2614.549072	25.569632
2613.864502	62.087845
2613.179932	73.032959
2612.495117	51.114979
2611.810303	14.601967
2611.125488	54.748707
2610.440430	54.740036
2609.755127	36.487579
2609.069824	29.185440
2608.384521	40.123623
2607.698975	69.293465
2607.013428	40.110916
2606.327637	54.688038
2605.641846	51.034081
2604.956055	51.025997
2604.270020	32.797230
2603.583740	47.366272
2602.897461	61.930695
2602.211182	47.351261
2601.524658	47.343758
2600.838135	36.412502
2600.151367	54.610100
2599.464600	54.601444
2598.777832	50.953270
2598.090820	50.945194
2597.403564	43.660385
2596.716309	69.117989
2596.029053	69.107033
2595.341553	65.459435
2594.654053	61.813000
2593.966309	43.625786
2593.278564	47.253777
2592.590820	50.880611
2591.902832	39.971283
2591.214600	39.964943
2590.526367	58.121609
2589.838135	72.640488
2589.149658	50.840275
2588.461182	54.463081
2587.772461	54.454441
2587.083740	43.556644
2586.394775	47.178875
2585.705811	61.685665
2585.016846	72.559853
2584.327637	43.529003
2583.638184	58.029465
2582.948975	54.393990
2582.259277	68.888115
2581.569824	58.001839
2580.879883	32.620853
2580.190186	61.607391
2579.500244	54.350834
2578.810059	61.587833
2578.119873	43.466862
2577.429688	50.703289
2576.739258	43.453060
2576.048584	32.584621
2575.358154	54.299076
2574.667236	54.290455
2573.976563	47.044254
2573.285645	25.327497
2572.594482	32.558754
2571.903320	21.702389
2571.212158	39.781391
2570.520752	25.311409
2569.829102	32.538071
2569.137451	50.606735
2568.445801	46.984501
2567.753906	54.204273
2567.062012	61.421749
2566.370117	32.512230
2565.677979	61.402229
2564.985596	57.781147
2564.293213	46.939720
2563.600830	46.932262
2562.908203	36.096001
2562.215332	32.481236
2561.522705	14.433810
2560.829590	54.118183
2560.136719	39.680359
2559.443604	18.033659
2558.750244	36.061581
2558.056885	32.450264
2557.363525	54.075172
2556.669922	43.253258
2555.976074	46.850243
2555.282227	54.049374
2554.588379	50.438061
2553.894287	46.827892
2553.200195	46.820442
2552.505859	54.014992
2551.811523	46.805546
2551.117188	43.198246
2550.422607	53.989216
2549.727783	50.381916
2549.032959	53.972034
2548.338135	32.378067
2547.643066	43.163887
2546.947998	43.157017
2546.252686	43.150146
2545.557373	32.357460
2544.861816	50.325813
2544.166260	43.129543
2543.470703	61.090462
2542.774902	46.708797
2542.078857	46.701359
2541.382813	50.285763
2540.686768	32.321415
2539.990479	46.679054
2539.294189	43.081497
2538.597656	46.664188
2537.901123	39.478794
2537.204346	46.649323
2536.507568	39.466217
2535.810791	28.698132
2535.113770	32.280254
2534.416504	46.619606
2533.719238	46.612179
2533.021973	57.359695
2532.324463	35.844097
2531.626953	46.589901
2530.929199	35.832676
2530.231445	28.661572
2529.533447	42.985504
2528.835449	50.141762
2528.137451	39.390820
2527.439209	42.964954
2526.740723	32.218578
2526.042236	50.109798
2525.343750	39.365707
2524.645020	35.781300
2523.946289	57.240955
2523.247314	57.231827
2522.548340	60.799118
2521.849121	32.182636
2521.149902	64.355003
2520.450684	35.747078
2519.751221	46.463791
2519.051514	57.177082
2518.351807	25.010983
2517.652100	50.013985
2516.952148	35.718578
2516.252197	32.141590
2515.552002	24.995026
2514.851807	28.561186
2514.151367	42.834942
2513.450928	46.397118
2512.750244	35.684395
2512.049561	42.814438
2511.348877	24.971104
2510.647949	49.934235
2509.946777	53.492424
2509.245605	46.352703
2508.544434	53.475349
2507.843018	53.466812
2507.141602	32.074966
2506.439941	57.013054
2505.738281	46.315712
2505.036377	42.746136
2504.334473	60.547356
2503.632568	24.927282
2502.930420	42.725658
2502.228027	32.039127
2501.525635	46.271347
2500.823242	42.705189
2500.120605	28.465578
2499.417969	60.479691
2498.715088	53.355907
2498.012207	49.790890
2497.309082	67.562553
2496.605957	46.219624
2495.902588	49.767025
2495.199219	21.325315
2494.495605	35.536514
2493.791992	56.849335
2493.088379	39.077671
2492.384521	17.759739
2491.680664	39.065178
2490.976563	53.262180
2490.272461	53.253666
2489.568115	39.046444
2488.863770	63.883965
2488.159180	46.131042
2487.454590	39.027718
2486.749756	28.379255
2486.044922	53.202595
2485.339844	31.916451
2484.634766	42.548462
2483.929688	60.267345
2483.224365	46.079422
2482.519043	42.528046
2481.813477	31.890932
2481.107666	70.857399
2480.402100	60.219154
2479.696045	38.959099
2478.990234	70.823395
2478.284180	42.487236
2477.577881	56.640579
2476.871582	53.092045
2476.165039	49.544647
2475.458496	42.460041
2474.751953	45.991016
2474.045166	45.983654
2473.338379	45.976292
2472.631348	35.360718
2471.924072	60.103592
2471.217041	56.559029
2470.509521	38.878109
2469.802246	35.338074
2469.094482	24.732691
2468.386963	38.859432
2467.679199	67.110085
2466.971191	24.720808
2466.263184	52.964676
2465.554932	67.077843
2464.846680	56.477558
2464.138428	52.939228
2463.429932	49.402027
2462.721436	45.865963
2462.012695	74.079300
2461.303955	42.324245
2460.594971	49.370373
2459.885986	49.362461
2459.176758	45.829224
2458.467529	52.871399
2457.758057	52.862923
2457.048584	52.854450
2456.338867	52.845978
2455.629150	49.315006
2454.919434	56.350971
2454.209473	56.341934
2453.499512	52.812096
2452.789307	42.242901
2452.078857	45.755806
2451.368408	63.344032
2450.657959	24.629839
2449.947266	45.733795
2449.236572	35.174198
2448.525879	49.235981
2447.814697	45.711792
2447.103760	52.735912
2446.392578	35.151634
2445.681152	42.175194
2444.969727	45.682461
2444.258301	49.188602
2443.546631	49.180710
2442.834717	42.148129
2442.122803	63.212048
2441.410889	45.645821
2440.698730	56.170452
2439.986572	35.100899
2439.274170	38.604790
2438.561768	24.562740
2437.849121	52.625996
2437.136475	35.078365
2436.423584	63.130917
2435.710693	49.093941
2434.997803	38.567616
2434.284424	38.561424
2433.571289	80.615479
2432.857910	70.089157
2432.144287	42.046741
2431.430908	52.549984
2430.717041	49.038776
2430.003174	73.546349
2429.289307	63.029598
2428.575195	56.017307
2427.861084	45.506752
2427.146729	66.499176
2426.432373	45.492126
2425.717773	38.487152
2425.003174	55.972317
2424.288330	66.456444
2423.573486	55.954327
2422.858643	59.441917
2422.143555	52.440319
2421.428223	41.945511
2420.712891	59.413258
2419.997559	34.943356
2419.281982	66.381699
2418.566162	55.891392
2417.850586	73.345657
2417.134521	62.857597
2416.418457	41.898327
2415.702393	52.364483
2414.986084	38.394444
2414.269775	69.796852
2413.553223	55.828503
2412.836670	41.864643
2412.120117	62.786861
2411.403076	69.751953
2410.686279	73.227768
2409.969238	59.270084
2409.251953	48.802803
2408.534668	45.309597
2407.817383	45.302307
2407.099854	55.747711
2406.382080	27.869370
2405.664307	76.628433
2404.946533	73.133545
2404.228516	55.711830
2403.510498	48.740002
2402.792236	38.289551
2402.073975	45.244003
2401.355469	45.236717
2400.636963	52.187809
2399.918213	48.700779
2399.199463	66.083275
2398.480469	48.685097
2397.761475	59.108093
2397.042480	55.622189
2396.323242	62.564884
2395.603760	59.079536
2394.884277	45.171192
2394.164795	24.319031
2393.445068	45.156639
2392.725098	31.257252
2392.005127	48.614559
2391.285156	48.606724
2390.564941	55.541592
2389.844727	59.003429
2389.124268	48.583229
2388.403809	62.454082
2387.683105	58.974907
2386.962402	48.559742
2386.241455	52.019905
2385.520508	48.544086
2384.799316	52.003136
2384.078125	48.528435
2383.356689	38.123337
2382.635254	48.512787
2381.913818	62.363525
2381.192139	58.889385
2380.470215	45.025799
2379.748291	65.796326
2379.026367	65.785713
2378.304199	51.927708
2377.581787	48.458046
2376.859375	62.293148
2376.136963	58.822926
2375.414307	44.974979
2374.691650	48.426781
2373.968750	51.877464
2373.245850	48.411152
2372.522705	38.031197
2371.799316	48.395531
2371.076172	55.300251
2370.352783	58.747032
2369.629150	72.558151
2368.905518	65.637253
2368.181641	48.356483
2367.457764	51.802155
2366.733643	44.887955
2366.009521	37.975983
2365.285400	44.873459
2364.561035	48.317459
2363.836426	48.309658
2363.111816	48.301857
2362.387207	51.743629
2361.662354	58.633308
2360.937256	41.381535
2360.212158	51.718563
2359.487061	58.604900
2358.761719	65.489014
2358.036377	75.817131
2357.310791	51.685150
2356.584961	55.121918
2355.859375	34.445633
2355.133301	55.104103
2354.407471	61.982098
2353.681152	58.529186
2352.955078	41.308044
2352.228516	65.393829
2351.502197	51.618362
2350.775635	48.169350
2350.048828	44.721451
2349.322021	55.032890
2348.594971	82.535988
2347.867920	44.699764
2347.140869	48.130424
2346.413330	41.247978
2345.686035	61.861961
2344.958496	37.798416
2344.230713	75.584610
2343.502930	41.221302
2342.775146	65.256500
2342.047119	48.075958
2341.319092	72.102272
2340.590820	37.761749
2339.862305	54.917294
2339.133789	51.476631
2338.405273	54.899521
2337.676514	54.890636
2336.947754	58.311863
2336.218750	54.872871
2335.489746	41.147995
2334.760498	54.855110
2334.031250	71.985680
2333.301758	58.264690
2332.572266	47.974918
2331.842529	54.819599
2331.112793	54.810726
2330.382813	65.077194
2329.652832	68.491219
2328.922607	89.024170
2328.192383	68.469040
2327.462158	44.497669
2326.731689	51.335148
2326.000977	51.326832
2325.270264	61.582222
2324.539307	51.310207
2323.808350	41.041515
2323.077393	37.615295
2322.346191	58.123310
2321.614746	37.603107
2320.883301	68.358208
2320.151855	54.677704
2319.420166	44.418434
2318.688232	64.908730
2317.956299	51.235428
2317.224365	54.642265
2316.492188	61.462585
2315.760010	47.796486
2315.027588	54.615700
2314.295166	81.910263
2313.562500	58.010365
2312.829590	61.412781
2312.096924	64.814087
2311.363770	57.982151
2310.630615	37.511780
2309.897461	61.372955
2309.164063	71.590172
2308.430664	74.987061
2307.697021	51.119247
2306.963379	68.147942
2306.229492	51.102665
2305.495605	74.938416
2304.761719	47.680344
2304.027344	51.077797
2303.293213	44.260239
2302.558838	57.869385
2301.824219	57.859993
2301.089600	54.447624
2300.354736	51.036366
2299.619873	47.626209
2298.885010	57.822437
2298.149658	40.809212
2297.414551	61.203880
2296.679199	54.394619
2295.943604	23.793781
2295.208008	64.572639
2294.472412	81.552193
2293.736572	71.346581
2293.000488	50.953568
2292.264404	67.927055
2291.528320	47.541218
2290.791992	74.695496
2290.055420	78.078056
2289.318848	71.277084
2288.582275	71.265503
2287.845459	57.681747
2287.108398	57.672379
2286.371582	30.527473
2285.634277	47.479465
2284.896973	57.644268
2284.159668	67.805763
2283.422119	88.133171
2282.684570	88.118851
2281.946777	77.938622
2281.208740	60.985527
2280.470703	30.487806
2279.732666	57.578716
2278.994385	67.728653
2278.256104	71.103523
2277.517578	64.321304
2276.779053	71.080406
2276.040283	57.531921
2275.301514	60.906246
2274.562500	47.363823
2273.823486	54.121277
2273.084229	64.258568
2272.344971	47.340714
2271.605469	70.999519
2270.865967	40.564556
2270.126221	91.255402
2269.386475	40.551357
2268.646484	67.574600
2267.906494	60.807243
2267.166260	50.664455
2266.426025	70.918694
2265.685547	57.401031
2264.945068	60.767670
2264.204346	64.133209
2263.463623	80.997185
2262.722656	40.492001
2261.981689	64.101898
2261.240723	43.852051
2260.499268	53.962971
2259.758057	53.954182
2259.016602	50.573811
2258.274902	74.162842
2257.533203	57.298321
2256.791260	53.919048
2256.049316	53.910267
2255.307129	67.376854
2254.564941	53.892704
2253.822754	87.561378
2253.080322	57.242344
2252.337646	67.332962
2251.594971	77.420296
2250.852051	67.311028
2250.109131	63.935055
2249.366211	90.840271
2248.623047	84.097656
2247.879639	84.083946
2247.136230	53.804958
2246.392578	77.332016
2245.648926	73.957703
2244.905273	77.306808
2244.161377	73.933586
2243.417236	67.201393
2242.673096	70.549965
2241.928955	73.897430
2241.184570	63.810104
2240.439941	77.231216
2239.695313	80.575951
2238.950439	53.708538
2238.205566	77.193436
2237.460693	67.113777
2236.715576	63.747688
2235.970215	87.219444
2235.224854	57.018795
2234.479492	33.534996
2233.733887	73.764954
2232.988037	70.400513
2232.242188	63.685310
2231.496338	73.728851
2230.750244	77.067581
2230.003906	63.654137
2229.257568	66.993416
2228.511230	50.236862
2227.764648	87.063011
2227.017822	70.308647
2226.270996	73.644653
2225.523926	50.204067
2224.776855	76.967003
2224.029785	60.225208
2223.282471	100.358955
2222.534912	70.239799
2221.787354	76.916740
2221.039795	63.529537
2220.291992	70.205391
2219.543945	66.851357
2218.795898	53.472347
2218.047852	66.829514
2217.299561	73.500458
2216.551025	70.148064
2215.802490	70.136604
2215.053955	63.446556
2214.305176	76.791176
2213.556152	70.102226
2212.807129	70.090767
2212.058105	63.405094
2211.308838	66.731293
2210.559326	53.376312
2209.809814	43.361164
2209.060303	66.698578
2208.310547	56.684521
2207.560547	80.012123
2206.810547	59.999279
2206.060303	76.653214
2205.310059	56.647457
2204.559814	69.964828
2203.809326	73.284500
2203.058594	63.280807
2202.307861	69.930504
2201.557129	63.260109
2200.806152	89.881233
2200.054932	89.866531
2199.303711	86.523987
2198.552246	59.891418
2197.800781	46.574593
2197.049316	63.198036
2196.297607	59.862026
2195.545654	76.477844
2194.793701	56.517853
2194.041504	99.721062
2193.289307	106.351723
2192.537109	56.490105
2191.784668	96.349701
2191.031982	89.690208
2190.279297	63.105000
2189.526367	99.623161
2188.773438	76.365250
2188.020508	86.311798
2187.267090	69.701958
2186.513916	82.964935
2185.760498	89.587456
2185.006836	86.255272
2184.253174	106.142944
2183.499268	89.543442
2182.745361	59.685848
2181.991211	82.883430
2181.237061	79.555054
2180.482666	96.113274
2179.728271	99.411240
2178.973877	99.394951
2178.218994	79.502930
2177.464355	76.177818
2176.709229	109.280693
2175.954346	69.530861
2175.198975	86.071724
2174.443848	72.817978
2173.688232	76.115410
2172.932861	66.176460
2172.177002	79.398735
2171.421387	72.770241
2170.665283	92.601479
2169.909424	85.972992
2169.153076	79.346664
2168.396729	72.722519
2167.640381	85.930695
2166.883789	66.089691
2166.127197	75.990685
2165.370361	66.068016
2164.613525	85.874329
2163.856445	62.744022
2163.099365	89.147926
2162.342041	49.518501
2161.584473	79.216599
2160.826904	79.203606
2160.069336	52.793736
2159.311523	89.074806
2158.553711	75.866089
2157.795654	89.045570
2157.037354	85.733513
2156.279053	95.610146
2155.520752	82.409004
2154.762207	72.508018
2154.003662	82.381950
2153.244873	79.073685
2152.485840	56.001328
2151.726807	98.809647
2150.967773	75.741623
2150.208252	85.606903
2149.448975	75.716743
2148.689453	85.578781
2147.929688	69.109970
2147.169922	59.227386
2146.410156	85.536613
2145.650146	55.918598
2144.889893	75.642143
2144.129639	82.206207
2143.369141	95.343536
2142.608643	95.327866
2141.847900	59.159298
2141.087158	69.007835
2140.326416	68.996490
2139.565186	75.555168
2138.804199	62.404877
2138.042725	91.949966
2137.281494	72.234520
2136.519775	55.808411
2135.758301	78.775391
2134.996338	82.044205
2134.234619	88.593170
2133.472412	82.017220
2132.710449	65.602989
2131.947998	65.592194
2131.185547	68.860481
2130.423096	78.684746
2129.660400	78.671799
2128.897705	68.826500
2128.134766	75.369003
2127.371826	81.909355
2126.608643	75.344208
2125.845215	88.432991
2125.081787	85.143684
2124.318359	98.226540
2123.554688	68.747261
2122.790771	72.009087
2122.026855	91.632843
2121.262939	88.345695
2120.498779	88.331154
2119.734375	81.774643
2118.969971	85.031624
2118.205322	75.207901
2117.440674	78.464882
2116.676025	88.258461
2115.911133	78.439049
2115.145996	84.961639
2114.380859	107.818161
2113.615479	62.066898
2112.850098	78.387383
2112.084473	91.436882
2111.318848	84.891685
2110.552979	120.787498
2109.787109	62.015793
2109.020996	94.640091
2108.254883	88.098663
2107.488525	78.297020
2106.722168	61.974926
2105.955566	84.793816
2105.188965	68.476028
2104.422119	104.327225
2103.655029	74.972832
2102.887939	84.737923
2102.120850	71.689499
2101.353516	71.677681
2100.585938	71.665863
2099.818359	78.168053
2099.050781	84.668091
2098.282959	91.165985
2097.514893	52.086254
2096.746826	78.116501
2095.978760	97.629517
2095.210449	100.867195
2094.441895	65.064873
2093.673340	81.317673
2092.904541	84.556427
2092.135742	94.297379
2091.366699	107.286209
2090.597656	52.008972
2089.828369	81.250610
2089.059082	87.736183
2088.289551	81.223793
2087.520020	87.707222
2086.750244	55.213951
2085.980469	81.183586
2085.210449	97.404221
2084.440186	74.664238
2083.670166	61.668972
2082.899658	71.394386
2082.129150	87.605919
2081.358643	77.859070
2080.587891	87.576988
2079.816895	81.076408
2079.045898	90.790581
2078.274902	77.807648
2077.503662	119.933640
2076.732178	68.059196
2075.960693	97.211365
2075.188965	74.516403
2074.417236	97.179245
2073.645264	116.595825
2072.873291	93.908897
2072.101074	71.229462
2071.328857	74.454857
2070.556396	93.862350
2069.783936	77.666344
2069.011230	103.538010
2068.238525	90.580788
2067.465576	90.565811
2066.692627	74.381042
2065.919434	100.236137
2065.145996	93.753792
2064.372559	90.505928
2063.599121	71.100044
2062.825439	84.013428
2062.051514	83.999535
2061.277588	80.755424
2060.503662	74.282707
2059.729248	109.791054
2058.955078	90.401199
2058.180664	106.526649
2057.406006	74.233566
2056.631348	109.718414
2055.856445	80.661957
2055.081543	112.908051
2054.306396	80.635262
2053.531250	70.947289
2052.755859	93.505951
2051.980225	99.938095
2051.204590	106.368103
2050.428955	96.682266
2049.653076	90.221848
2048.877197	86.985237
2048.101074	67.643982
2047.324707	74.073997
2046.548340	103.042412
2045.771851	119.123062
2044.995239	106.227295
2044.218506	96.554276
2043.441528	96.538284
2042.664551	80.435249
2041.887329	86.855675
2041.110107	93.273979
2040.332642	93.258522
2039.555176	99.673630
2038.777466	90.012878
2037.999634	109.283241
2037.221802	89.983055
2036.443726	99.607590
2035.665527	89.953232
2034.887207	102.786659
2034.108765	61.019463
2033.330200	93.119530
2032.551514	99.525070
2031.772705	105.928474
2030.993774	80.235542
2030.214600	77.013351
2029.435425	77.000580
2028.656128	102.650421
2027.876587	86.596931
2027.097046	70.548759
2026.317261	105.805588
2025.537476	115.405136
2024.757446	105.770493
2023.977295	118.571487
2023.197021	80.102577
2022.416626	92.903580
2021.636230	102.497284
2020.855591	86.467735
2020.074707	86.453392
2019.293823	86.439041
2018.512817	80.022865
2017.731689	105.612656
2016.950439	99.195427
2016.168945	83.182350
2015.387451	89.566124
2014.605713	95.947777
2013.823975	89.536392
2013.041992	105.507515
2012.260010	99.096664
2011.477783	118.257027
2010.695435	102.259369
2009.912964	92.657158
2009.130371	79.863594
2008.347656	95.820404
2007.564819	114.965385
2006.781860	108.560387
2005.998779	92.580238
2005.215576	108.524323
2004.432129	98.932205
2003.648682	76.579948
2002.864990	95.709030
2002.081299	89.313591
2001.297363	82.920265
2000.513428	82.906487
1999.729248	98.833611
1998.944946	79.691277
1998.160522	98.800758
1997.375977	130.650253
1996.591309	98.767921
1995.806519	95.565964
1995.021606	79.625069
1994.236572	117.825500
1993.451416	101.886192
1992.666016	82.768768
1991.880615	95.486542
1991.094971	111.382439
1990.309326	98.636612
1989.523438	117.707985
1988.737549	82.699966
1987.951416	104.947876
1987.165161	89.031868
1986.378784	82.658699
1985.592285	108.074158
1984.805664	92.165565
1984.018921	82.617447
1983.232056	95.311958
1982.444946	104.825706
1981.657837	127.040314
1980.870605	127.019173
1980.083130	117.473175
1979.295654	101.581512
1978.507935	92.042923
1977.720093	98.374329
1976.932129	117.394974
1976.144165	107.858498
1975.355957	104.668762
1974.567627	91.966324
1973.779053	107.804626
1972.990479	129.978043
1972.201782	91.920380
1971.412964	85.566788
1970.623901	85.552536
1969.834839	136.227646
1969.045532	101.361816
1968.256226	88.676819
1967.466675	148.825577
1966.677002	113.975060
1965.887207	107.625175
1965.097290	94.947563
1964.307251	107.589310
1963.517090	107.571373
1962.726807	107.553444
1961.936401	94.884285
1961.145874	129.653564
1960.355103	98.014404
1959.564331	107.481750
1958.773315	129.588730
1957.982178	142.207825
1957.191040	85.310463
1956.399658	129.523926
1955.608154	123.185135
1954.816528	113.690392
1954.024780	119.986504
1953.232910	116.809479
1952.440918	119.946480
1951.648682	145.174149
1950.856445	104.129295
1950.063965	110.421738
1949.271484	110.403313
1948.478760	116.692604
1947.685913	91.446510
1946.893066	132.417664
1946.099976	122.938744
1945.306763	126.069969
1944.513428	135.502594
1943.719971	100.822311
1942.926270	103.955650
1942.132568	110.237587
1941.338745	113.368301
1940.544678	113.349373
1939.750610	122.774651
1938.956299	94.426270
1938.161865	138.468735
1937.367310	103.834206
1936.572632	135.276520
1935.777832	113.235847
1934.982910	110.072014
1934.187866	103.764854
1933.392700	116.322975
1932.597290	106.873520
1931.801880	113.141296
1931.006226	147.687561
1930.210571	125.670540
1929.414673	91.095917
1928.618652	100.502831
1927.822510	128.747742
1927.026245	131.865875
1926.229858	141.261261
1925.433350	122.405952
1924.636719	116.109314
1923.839844	103.539642
1923.042969	116.070496
1922.245850	116.051086
1921.448730	131.711639
1920.651367	134.825073
1919.853882	115.992874
1919.056274	156.720917
1918.258545	112.820183
1917.460693	137.868271
1916.662720	125.313828
1915.864624	134.689835
1915.066284	131.535492
1914.267944	128.382217
1913.469360	100.183990
1912.670776	122.078812
1911.871948	122.058380
1911.072998	115.779594
1910.273926	106.374252
1909.474731	128.253372
1908.675415	143.869934
1907.875977	137.591690
1907.076294	131.315536
1906.276611	146.923737
1905.476807	103.141945
1904.676758	137.499573
1903.876587	124.978676
1903.076294	124.957748
1902.275879	112.443146
1901.475342	146.776184
1900.674683	121.772606
1899.873901	143.605164
1899.072998	115.489159
1898.271851	121.711426
1897.470703	124.811317
1896.669312	134.149689
1895.867920	127.888733
1895.066284	149.698303
1894.264526	146.555038
1893.462646	143.412796
1892.660645	137.154480
1891.858521	118.431740
1891.056152	137.108505
1890.253784	130.854355
1889.451172	115.257133
1888.648560	130.810486
1887.845703	137.016586
1887.042725	146.334091
1886.239624	130.744705
1885.436401	118.272995
1884.633057	115.141235
1883.829590	124.456131
1883.025879	139.989670
1882.222168	115.083313
1881.418213	127.503357
1880.614258	155.465820
1879.810059	149.222153
1879.005737	164.738480
1878.201294	136.741074
1877.396729	149.147049
1876.592041	161.548859
1875.787231	133.566055
1874.982178	142.860641
1874.177124	121.100655
1873.371826	145.917313
1872.566406	152.101028
1871.760986	114.832520
1870.955322	127.225479
1870.149536	114.793968
1869.343506	139.590836
1868.537476	148.871902
1867.731323	142.644943
1866.924927	142.620987
1866.118530	130.197296
1865.311890	117.777771
1864.505127	127.054672
1863.698242	111.541458
1862.891235	176.577652
1862.084106	151.769318
1861.276855	167.227890
1860.469482	139.333160
1859.661865	145.501282
1858.854126	148.572098
1858.046387	148.547119
1857.238403	160.899002
1856.430298	163.965652
1855.622070	136.099548
1854.813721	148.447281
1854.005249	145.330200
1853.196533	163.855438
1852.387817	139.099152
1851.578857	126.713478
1850.769775	154.502655
1849.960693	166.834808
1849.151367	157.539703
1848.341919	142.070740
1847.532227	129.694946
1846.722534	175.984970
1845.912720	175.955368
1845.102661	148.148010
1844.292603	151.208984
1843.482300	138.842041
1842.671875	141.903534
1841.861328	154.217026
1841.050659	117.185211
1840.239868	141.831909
1839.428833	157.221970
1838.617798	144.866440
1837.806519	147.923813
1836.995117	157.142593
1836.183716	123.228348
1835.372070	166.330261
1834.560303	126.266533
1833.748291	166.274261
1832.936279	150.853088
1832.124146	150.827682
1831.311768	147.724686
1830.499390	116.929016
1829.686768	156.904617
1828.874023	138.421936
1828.061157	119.945473
1827.248169	156.825348
1826.434937	156.798935
1825.621704	165.994431
1824.808228	159.819550
1823.994751	184.376114
1823.181030	159.765701
1822.367188	162.810684
1821.553223	175.068771
1820.739136	153.543213
1819.924927	150.446991
1819.110474	135.072479
1818.296021	165.742828
1817.481323	147.302124
1816.666626	131.935913
1815.851685	144.184708
1815.036621	147.227631
1814.221436	177.870056
1813.406006	174.773865
1812.590576	183.941452
1811.774902	162.454224
1810.959229	137.909561
1810.143311	150.142853
1809.327271	128.672165
1808.511108	168.470840
1807.694824	137.816528
1806.878418	150.041565
1806.061768	156.139359
1805.245117	140.807816
1804.428223	156.086670
1803.611206	153.000320
1802.794067	149.915009
1801.976807	192.715347
1801.159424	143.747498
1800.341919	162.070877
1799.524170	149.813812
1798.706421	131.447067
1797.888428	165.045197
1797.070313	161.961456
1796.252075	189.432358
1795.433716	155.797073
1794.615234	158.825089
1793.796509	161.852081
1792.977783	152.664856
1792.158813	155.691849
1791.339844	189.240463
1790.520630	164.794495
1789.701294	167.817902
1788.881714	164.738831
1788.062134	173.861603
1787.242432	186.030975
1786.422485	161.606155
1785.602417	143.286896
1784.782349	146.310822
1783.962036	188.952866
1783.141479	182.826706
1782.320923	158.423035
1781.500244	149.258011
1780.679321	155.323898
1779.858398	170.522903
1779.037231	149.182312
1778.215942	176.553284
1777.394531	167.392914
1776.572998	179.536575
1775.751221	185.591156
1774.929443	173.391922
1774.107422	179.445480
1773.285278	164.210464
1772.463013	170.263519
1771.640625	164.154907
1770.818115	161.087738
1769.995483	182.332626
1769.172607	188.378494
1768.349731	215.687256
1767.526611	185.277405
1766.703369	142.730560
1765.880005	157.887939
1765.056519	133.574875
1764.232910	173.010880
1763.409058	197.259705
1762.585083	175.986557
1761.761108	172.923019
1760.936890	188.059860
1760.112549	160.733627
1759.288086	169.802994
1758.463379	145.520782
1757.638672	178.839005
1756.813721	166.686081
1755.988647	190.898987
1755.163574	206.014801
1754.338257	151.455811
1753.512695	157.487350
1752.687134	208.938202
1751.861328	202.847641
1751.035522	193.732071
1750.209473	169.486847
1749.383301	187.614349
1748.557007	160.352829
1747.730591	163.350662
1746.903931	178.445465
1746.077271	184.463181
1745.250366	187.455383
1744.423340	151.148071
1743.596313	211.571426
1742.768921	178.294250
1741.941528	196.392563
1741.114014	208.442902
1740.286255	175.183151
1739.458374	178.173325
1738.630493	217.394989
1737.802368	190.188339
1736.973999	202.229477
1736.145630	165.981110
1735.317139	168.970276
1734.488403	177.992050
1733.659546	187.010757
1732.830566	159.836914
1732.001465	202.023682
1731.172241	180.886032
1730.342896	150.712784
1729.513306	192.879608
1728.683594	195.860107
1727.853882	198.839569
1727.023926	183.744766
1726.193726	207.807159
1725.363525	180.671188
1724.533203	183.651199
1723.702637	150.508194
1722.871948	222.714310
1722.041138	192.585068
1721.210205	174.500580
1720.379150	171.462814
1719.547974	192.486954
1718.716553	192.454254
1717.885010	171.375443
1717.053467	180.364563
1716.221558	168.311646
1715.389648	201.338654
1714.557617	189.286255
1713.725342	195.262161
1712.893066	198.232498
1712.060547	198.198807
1711.227905	207.172623
1710.395142	180.119476
1709.562256	201.099228
1708.729126	189.061157
1707.895874	180.027634
1707.062622	191.996826
1706.229126	179.966415
1705.395508	179.935806
1704.561646	164.913101
1703.727783	209.853714
1702.893677	209.818024
1702.059570	188.804092
1701.225220	191.768356
1700.390747	176.756378
1699.556030	161.749512
1698.721313	164.716843
1697.886353	161.694473
1697.051392	182.623779
1696.216187	206.539291
1695.380859	173.583191
1694.545410	161.584427
1693.709717	200.450256
1692.874023	188.450989
1692.038086	182.437363
1691.202026	209.318710
1690.365845	209.283066
1689.529541	236.150681
1688.692993	179.324402
1687.856445	182.282104
1687.019653	194.201950
1686.182739	191.181656
1685.345703	209.069321
1684.508545	176.185562
1683.671143	229.897919
1682.833740	194.036606
1681.996094	217.880920
1681.158325	205.907150
1680.320435	199.904755
1679.482422	199.870697
1678.644287	149.131821
1677.805908	190.856201
1676.967407	172.933945
1676.128784	184.828918
1675.290039	205.661636
1674.451172	226.487259
1673.612183	196.652771
1672.772949	181.723846
1671.933594	181.692856
1671.094116	205.486389
1670.254517	220.339127
1669.414795	190.531082
1668.574829	181.568954
1667.734863	190.466095
1666.894653	217.213333
1666.054321	172.551025
1665.213867	178.470612
1664.373169	205.206177
1663.532471	184.356705
1662.691528	172.433304
1661.850464	184.293793
1661.009277	190.206299
1660.167969	199.088242
1659.326538	184.199463
1658.484863	190.108932
1657.643066	216.805984
1656.801147	175.196854
1655.959106	190.011597
1655.116943	213.726547
1654.274658	186.978806
1653.432129	216.620987
1652.589478	213.617096
1651.746704	192.815842
1650.903809	210.578247
1650.060791	186.819214
1649.217529	228.295593
1648.374146	201.577255
1647.530640	192.651230
1646.687012	192.618317
1645.843262	207.399673
1644.999390	198.477203
1644.155273	228.061691
1643.311035	186.564041
1642.466675	213.179611
1641.622192	210.182861
1640.777588	210.146942
1639.932739	174.599304
1639.087769	239.663147
1638.242798	224.830688
1637.397461	186.340942
1636.552124	201.095520
1635.706665	206.974701
1634.860962	201.026764
1634.015137	198.036621
1633.169189	206.868546
1632.323120	206.833176
1631.476929	186.118011
1630.630493	203.808670
1629.783936	218.540024
1628.937256	250.982773
1628.090454	183.038467
1627.243530	215.476166
1626.396484	185.927063
1625.549194	203.599548
1624.701782	191.763855
1623.854248	212.378998
1623.006592	215.291855
1622.158691	212.306320
1621.310791	168.047058
1620.462646	232.867462
1619.614380	203.355759
1618.765991	212.160980
1617.917358	218.017014
1617.068726	176.740280
1616.219849	212.052017
1615.370850	209.071045
1614.521729	197.258606
1613.672363	211.943085
1612.822998	217.793091
1611.973389	191.271973
1611.123657	223.602768
1610.273804	200.031357
1609.423828	185.291428
1608.573608	220.547226
1607.723389	214.629196
1606.872925	220.471649
1606.022339	191.042694
1605.171509	208.641632
1604.320679	199.791550
1603.469604	199.757294
1602.618408	217.345688
1601.767090	229.054825
1600.915649	217.271164
1600.064087	217.233917
1599.212280	226.001938
1598.360352	193.682739
1597.508301	231.792603
1596.656128	205.350632
1595.803833	202.382339
1594.951294	234.605942
1594.098633	219.905350
1593.245850	199.346649
1592.392944	234.485229
1591.539795	205.139374
1590.686646	231.474716
1589.833252	231.434998
1588.979736	213.820969
1588.126099	204.998611
1587.272217	204.963440
1586.418335	204.928253
1585.564209	231.236481
1584.709961	222.417160
1583.855591	239.935226
1583.000977	216.489731
1582.146362	193.052292
1581.291504	204.717270
1580.436523	210.530182
1579.581421	213.417557
1578.726074	233.842087
1577.870605	230.879410
1577.015137	201.619537
1576.159424	201.584900
1575.303467	233.681473
1574.447510	254.084946
1573.591309	221.921127
1572.734985	242.319595
1571.878540	224.763885
1571.021973	215.969742
1570.165161	224.686646
1569.308350	233.400558
1568.451294	210.024399
1567.594116	209.988297
1566.736694	209.952209
1565.879272	212.831619
1565.021606	206.965027
1564.163818	236.074448
1563.305908	195.237869
1562.447876	203.944794
1561.589600	192.257736
1560.731201	200.962173
1559.872681	221.311569
1559.014038	212.539017
1558.155273	229.968414
1557.296265	238.660339
1556.437134	235.709290
1555.577881	218.211792
1554.718506	250.173141
1553.859009	238.496140
1552.999268	241.363098
1552.139404	235.506577
1551.279419	235.466049
1550.419312	238.332016
1549.558960	223.761047
1548.698608	238.249969
1547.838013	223.684021
1546.977173	232.358978
1546.116333	214.895050
1545.255249	214.858047
1544.394165	232.238983
1543.532837	191.564163
1542.671265	249.570938
1541.809692	217.611588
1540.947876	211.772125
1540.085938	232.039078
1539.223877	240.699066
1538.361694	226.160156
1537.499268	240.616150
1536.636841	197.097336
1535.774170	240.533234
1534.911377	208.619385
1534.048340	225.965393
1533.185303	214.340469
1532.322021	234.575485
1531.458618	228.744064
1530.594971	234.494629
1529.731323	257.610168
1528.867432	251.777771
1528.003418	243.053879
1527.139282	225.653976
1526.275024	219.830063
1525.410522	231.360168
1524.545898	222.645752
1523.681152	231.280365
1522.816284	251.474030
1521.951172	260.100677
1521.086060	231.160721
1520.220703	213.786774
1519.355225	239.746506
1518.489502	213.713013
1517.623779	254.101349
1516.757813	233.848389
1515.891724	251.127151
1515.025513	222.223602
1514.159058	248.154953
1513.292480	242.342072
1512.425781	222.108551
1511.558960	242.258423
1510.692017	253.750717
1509.824829	253.706909
1508.957520	224.837753
1508.090088	219.034851
1507.222534	247.812439
1506.354736	230.483383
1505.486938	250.607391
1504.618896	256.324188
1503.750610	224.604874
1502.882324	230.324188
1502.013794	213.013077
1501.145142	247.512955
1500.276367	233.082397
1499.407471	279.075134
1498.538330	241.631561
1497.669067	244.465866
1496.799683	244.423615
1495.930176	250.131531
1495.060547	278.834076
1494.190674	258.667297
1493.320679	258.622589
1492.450562	235.593185
1491.580200	267.150940
1490.709717	209.662872
1489.839233	223.984619
1488.968384	246.914688
1488.097534	244.001389
1487.226440	269.790161
1486.355347	200.872818
1485.483887	272.565948
1484.612427	275.387421
1483.740845	278.207916
1482.869019	295.365540
1481.997070	275.244507
1481.124878	278.063538
1480.252686	292.346100
1479.380249	283.698578
1478.507690	343.817566
1477.635010	340.893402
1476.762207	309.328705
1475.889160	357.957367
1475.015991	289.179474
1474.142700	323.481415
1473.269165	363.495819
1472.395630	369.156250
1471.521851	371.953522
1470.647949	431.963501
1469.773804	446.189636
1468.899658	483.288391
1468.025269	491.782288
1467.150757	443.099121
1466.276001	523.052246
1465.401245	511.530762
1464.526245	551.443176
1463.651123	559.917847
1462.775879	634.082764
1461.900391	622.549927
1461.024780	596.744934
1460.149048	585.222534
1459.273193	587.975342
1458.397217	613.557190
1457.520996	596.331299
1456.644653	633.313843
1455.768188	590.419983
1454.891479	590.317627
1454.014648	536.040955
1453.137695	632.874756
1452.260620	595.711182
1451.383423	561.410339
1450.505981	552.765015
1449.628418	561.215576
1448.750732	575.359802
1447.872803	518.303589
1446.994873	589.396851
1446.116699	586.447754
1445.238403	572.114319
1444.359863	631.777832
1443.481201	694.265930
1442.602417	694.145447
1441.723511	804.955200
1440.844482	824.722595
1439.965210	898.507263
1439.085815	1003.537964
1438.206299	957.885498
1437.326538	957.719238
1436.446777	863.786621
1435.566772	860.795715
1434.686646	815.199585
1433.806274	707.140930
1432.925781	672.944946
1432.045166	593.337830
1431.164429	573.365662
1430.283569	493.803467
1429.402466	493.717682
1428.521240	479.447083
1427.639893	465.181427
1426.758301	436.740814
1425.876709	428.158478
1424.994873	379.889160
1424.112793	428.009674
1423.230713	467.611389
1422.348389	425.027374
1421.465942	447.617706
1420.583374	444.707336
1419.700562	515.431030
1418.817627	577.635376
1417.934570	693.608154
1417.051392	832.185120
1416.167969	950.903320
1415.284546	1052.602661
1414.400757	1080.710449
1413.516968	995.664734
1412.633057	825.805481
1411.748901	650.350098
1410.864624	525.843811
1409.980103	418.340546
1409.095459	373.049622
1408.210815	327.774445
1407.325806	310.766510
1406.440796	276.816528
1405.555542	271.120026
1404.670166	276.720184
1403.784668	259.732910
1402.899048	251.219620
1402.013184	225.776077
1401.127197	259.597290
1400.241089	251.088440
1399.354736	253.865448
1398.468262	231.259354
1397.581665	245.317810
1396.694946	245.275085
1395.807983	262.144958
1394.920898	245.189651
1394.033691	242.329163
1393.146362	216.931351
1392.258789	236.611145
1391.371094	233.753616
1390.483276	233.712891
1389.595337	236.487488
1388.707153	225.186935
1387.818848	242.033768
1386.930420	239.177734
1386.041748	230.695953
1385.152954	244.720108
1384.264038	247.489838
1383.375000	239.011017
1382.485718	230.535126
1381.596313	261.414978
1380.706787	247.317291
1379.817139	255.703964
1378.927246	244.421600
1378.037231	247.187927
1377.147095	275.229431
1376.256714	283.605347
1375.366333	227.406204
1374.475586	232.980530
1373.584839	272.230957
1372.693970	263.765411
1371.802856	280.552521
1370.911499	314.164001
1370.020142	272.040985
1369.128540	336.486816
1368.236816	269.142487
1367.344971	341.975525
1366.453003	280.258881
1365.560791	299.824646
1364.668457	285.764252
1363.775879	266.106506
1362.883301	274.461945
1361.990479	257.613159
1361.097534	265.967133
1360.204346	260.322357
1359.311035	237.887497
1358.417603	257.433258
1357.524048	229.411301
1356.630249	243.357269
1355.736450	254.501648
1354.842285	260.049652
1353.948120	201.293579
1353.053711	248.777756
1352.159180	268.297668
1351.264526	240.307983
1350.369751	254.234940
1349.474731	226.257477
1348.579590	234.596375
1347.684204	245.724670
1346.788818	265.224579
1345.893188	231.682007
1344.997314	223.268921
1344.101440	206.487640
1343.205322	251.089691
1342.309082	225.941208
1341.412720	245.424057
1340.516113	262.111664
1339.619385	273.217560
1338.722534	259.232544
1337.825439	248.039352
1336.928223	264.714783
1336.030884	236.808624
1335.133423	247.909180
1334.235718	245.080795
1333.337891	270.098602
1332.439941	286.755524
1331.541870	247.735687
1330.643555	258.824554
1329.745117	239.301254
1328.846436	272.644379
1327.947754	264.251862
1327.048828	216.926697
1326.149780	244.694962
1325.250488	278.013763
1324.351074	277.965088
1323.451538	275.137238
1322.551880	258.416992
1321.651978	266.706299
1320.751953	272.214966
1319.851807	286.053375
1318.951416	299.886932
1318.050903	280.400665
1317.150269	274.800018
1316.249512	308.055145
1315.348511	283.028076
1314.447388	282.978485
1313.546021	288.476501
1312.644653	293.972595
1311.743042	310.558105
1310.841309	329.910156
1309.939331	357.570984
1309.037231	340.880005
1308.135010	346.362030
1307.232666	321.367615
1306.330078	351.780426
1305.427368	332.332672
1304.524536	346.119141
1303.621460	359.900787
1302.718262	387.517456
1301.814941	448.334412
1300.911499	431.653687
1300.007813	456.476685
1299.104004	517.249451
1298.199951	553.110901
1297.295898	746.568726
1296.391602	948.252319
1295.487061	1448.387817
1294.582520	1909.657104
1293.677734	2160.766602
1292.772827	1895.173584
1291.867676	1477.754883
1290.962402	1057.721069
1290.057007	709.625549
1289.151489	532.815857
1288.245728	416.793091
1287.339844	400.161499
1286.433838	355.943237
1285.527588	328.293060
1284.621216	303.410858
1283.714722	267.506226
1282.808105	253.672668
1281.901245	261.898590
1280.994263	275.634277
1280.087036	308.656158
1279.179810	250.739059
1278.272217	267.224335
1277.364624	258.914154
1276.456787	242.345123
1275.548828	236.795639
1274.640747	324.848541
1273.732544	242.217346
1272.824097	242.174759
1271.915405	258.641205
1271.006714	250.342651
1270.097778	253.049179
1269.188721	244.754517
1268.279541	241.961914
1267.370117	255.664764
1266.460571	263.865601
1265.550781	263.819183
1264.640991	252.782242
1263.730957	241.749176
1262.820679	249.946640
1261.910400	241.664108
1260.999878	208.673187
1260.089233	181.184296
1259.178345	233.302353
1258.267334	249.726791
1257.356201	214.013855
1256.444824	213.976181
1255.533447	178.282104
1254.621704	230.354767
1253.709961	208.379532
1252.797974	211.084183
1251.885864	208.306152
1250.973633	211.009857
1250.061157	189.053452
1249.148560	213.674957
1248.235840	202.681564
1247.322876	197.168945
1246.409790	183.444336
1245.496582	213.524445
1244.583130	221.697845
1243.669556	188.820450
1242.755859	191.523224
1241.841919	213.373978
1240.927856	202.396057
1240.013672	188.687378
1239.099365	205.058838
1238.184814	224.158142
1237.270142	204.986542
1236.355225	221.346436
1235.440186	204.914276
1234.525024	191.219604
1233.609741	188.454651
1232.694214	182.959930
1231.778564	207.500031
1230.862671	196.544312
1229.946777	201.968246
1229.030640	210.119080
1228.114258	207.353668
1227.197876	185.494247
1226.281128	215.462646
1225.364380	215.424622
1224.447388	196.301727
1223.530273	196.267075
1222.613037	171.703384
1221.695557	193.472839
1220.777954	212.510117
1219.860229	207.024582
1218.942261	179.752777
1218.024170	215.120636
1217.105957	185.134445
1216.187500	195.990082
1215.268921	179.625854
1214.350220	209.526489
1213.431274	198.606918
1212.512207	187.691193
1211.593018	209.415497
1210.673706	195.782501
1209.754150	176.716873
1208.834351	176.685654
1207.914551	222.856354
1206.994507	211.947861
1206.074219	184.742416
1205.153931	173.844482
1204.233398	160.234558
1203.312744	181.929123
1202.391846	187.326721
1201.470825	192.722412
1200.549683	184.546585
1199.628296	181.800522
1198.706787	214.323898
1197.785156	189.873688
1196.863281	173.568100
1195.941284	165.402832
1195.019165	181.639847
1194.096802	184.318283
1193.174438	197.836090
1192.251709	189.672287
1191.328979	216.729980
1190.406006	181.479248
1189.482788	227.485962
1188.559570	200.368851
1187.636108	203.040604
1186.712402	208.418121
1185.788696	186.731247
1184.864746	178.580887
1183.940552	197.486313
1183.016357	178.517670
1182.091919	213.642410
1181.167236	191.973755
1180.242554	205.456650
1179.317505	194.608673
1178.392456	172.954849
1177.467163	210.751404
1176.541748	208.012619
1175.616211	210.676758
1174.690430	178.233383
1173.764526	234.902374
1172.838501	221.363022
1171.912231	232.120087
1170.985840	264.462067
1170.059204	275.207672
1169.132446	291.344727
1168.205566	331.750458
1167.278564	288.544800
1166.351318	245.354416
1165.423828	258.789551
1164.496338	242.572205
1163.568604	256.003052
1162.640747	202.071838
1161.712646	212.811264
1160.784424	223.546875
1159.856079	226.200089
1158.927490	180.389511
1157.998779	209.968445
1157.069946	180.325531
1156.140869	204.512070
1155.211670	207.166275
1154.282349	190.989563
1153.352783	180.197601
1152.423096	212.434113
1151.493164	204.330734
1150.563232	190.854050
1149.632935	215.008652
1148.702637	209.596237
1147.772095	217.618988
1146.841431	209.521835
1145.910522	193.370438
1144.979492	209.447464
1144.048340	204.040771
1143.116943	228.162979
1142.185425	222.754883
1141.253784	254.915131
1140.321899	262.918396
1139.389893	233.365692
1138.457764	278.916351
1137.525391	311.043732
1136.592896	327.074097
1135.660278	318.974609
1134.727417	404.677399
1133.794434	468.913666
1132.861206	586.707703
1131.927856	782.137878
1130.994385	1052.484863
1130.060669	1424.484497
1129.126831	1657.141357
1128.192871	1686.289917
1127.258667	1731.485229
1126.324341	1391.363525
1125.389893	1040.661987
1124.455200	813.123352
1123.520386	660.545227
1122.585327	537.433105
1121.650146	467.831207
1120.714844	390.235474
1119.779297	374.131866
1118.843628	333.986877
1117.907837	320.570374
1116.971802	304.487671
1116.035645	283.069733
1115.099365	293.699371
1114.162842	296.316620
1113.226196	242.883011
1112.289307	240.171219
1111.352417	250.800842
1110.415161	226.747635
1109.477905	221.372986
1108.540405	229.333588
1107.602661	218.627991
1106.664917	218.589066
1105.726807	207.889160
1104.788696	242.494171
1103.850342	234.458099
1102.911865	226.424881
1101.973145	223.721207
1101.034302	250.310089
1100.095337	247.603104
1099.156128	228.925522
1098.216797	231.546188
1097.277344	226.182983
1096.337646	234.124191
1095.397827	226.102386
1094.457764	268.614960
1093.517700	252.612610
1092.577271	228.640137
1091.636841	271.129486
1090.696167	289.684784
1089.755249	249.775360
1088.814209	247.074127
1087.873047	273.592438
1086.931763	270.887909
1085.990234	273.494904
1085.048584	292.029846
1084.106689	246.853928
1083.164673	273.348602
1082.222412	273.299835
1081.280151	289.168640
1080.337524	281.159698
1079.394897	286.413483
1078.452026	275.756378
1077.509033	278.358185
1076.565796	267.706299
1075.622437	280.908936
1074.678955	251.713089
1073.735229	254.317307
1072.791382	262.217896
1071.847290	317.783142
1070.903076	301.840088
1069.958740	272.666504
1069.014160	304.379120
1068.069458	351.958191
1067.124512	425.978577
1066.179565	489.391083
1065.234253	682.380249
1064.288940	798.612549
1063.343384	1041.712402
1062.397583	1171.056152
1061.451660	1173.489990
1060.505615	1104.574707
1059.559448	911.507629
1058.613037	795.115295
1057.666382	612.736816
1056.719727	520.205078
1055.772827	414.505615
1054.825684	372.196472
1053.878418	314.067108
1052.931030	277.068512
1051.983398	282.295532
1051.035645	221.575562
1050.087769	239.997269
1049.139648	229.406906
1048.191406	221.456711
1047.242920	197.693848
1046.294312	205.564835
1045.345581	210.798019
1044.396606	210.760315
1043.447510	200.186478
1042.498291	200.150665
1041.548828	189.582489
1040.599121	215.874756
1039.649414	213.203979
1038.699341	200.007446
1037.749268	178.922012
1036.798950	192.043655
1035.848511	210.421143
1034.897827	173.566360
1033.947021	176.164612
1032.996094	181.390778
1032.044922	186.615067
1031.093506	173.442093
1030.142090	181.293365
1029.190430	212.784531
1028.238525	202.240433
1027.286499	181.195969
1026.334351	157.533493
1025.381958	194.256516
1024.429443	194.221710
1023.476807	191.562759
1022.523926	165.291672
1021.570923	178.378082
1020.617737	204.573502
1019.664368	165.202835
1018.710815	204.500183
1017.757080	183.492905
1016.803223	170.355728
1015.849121	201.769836
1014.894897	183.394241
1013.940491	154.547440
1012.985962	154.519730
1012.031189	201.625183
1011.076294	167.554520
1010.121216	201.552872
1009.165955	162.260223
1008.210510	175.314270
1007.254944	170.050507
1006.299133	183.098465
1005.343201	183.065613
1004.387085	162.114731
1003.430786	151.628510
1002.474365	175.125641
1001.517700	180.320908
1000.560913	172.449921
999.603943	169.806549
998.646790	211.567108
997.689514	172.357071
996.731995	190.603149
995.774353	159.242523
994.816528	193.144775
993.858521	185.281311
992.900330	159.156769
991.942017	190.432083
990.983459	190.397888
990.024780	143.424698
989.065918	138.184433
988.106873	153.800323
987.147705	169.410583
986.188293	182.409393
985.228760	177.165863
984.269043	169.319290
983.309143	161.475540
982.349060	192.694229
981.388794	148.399963
980.428406	158.785446
979.467834	169.167191
978.507019	179.545197
977.546082	153.496567
976.585022	156.070129
975.623718	166.444870
974.662292	163.814713
973.700623	163.785248
972.738831	184.550186
971.776855	161.127518
970.814758	150.705078
969.852417	176.656937
968.889954	148.053436
967.927246	155.817688
966.964417	168.772125
966.001404	176.529831
965.038208	160.924713
964.074890	173.871216
963.111328	171.245300
962.147644	191.967743
961.183777	181.558426
960.219727	189.305420
959.255493	145.194458
958.291077	168.498932
957.326538	176.244080
956.361755	155.481476
955.396851	173.589722
954.431763	158.015915
953.466492	170.937241
952.501038	170.906448
951.535461	163.108597
950.569641	152.724976
949.603699	163.049835
948.637573	150.082321
947.671265	173.339722
946.704773	162.961716
945.738098	181.035934
944.771240	173.246033
943.804260	173.214813
942.837097	168.013931
941.869751	201.580368
940.902222	180.872849
939.934509	173.089951
938.966614	139.480179
937.998535	157.532532
937.030334	157.504120
936.061951	178.128281
935.093323	183.258362
934.124573	188.386581
933.155640	167.711212
932.186584	159.941849
931.217285	172.809204
930.247864	170.199249
929.278198	162.433609
928.308411	183.027069
927.338440	167.529755
926.368286	167.499512
925.397949	164.892838
924.427429	188.046951
923.456787	185.437485
922.485901	185.404007
921.514893	187.945129
920.543701	185.337067
919.572327	169.861633
918.600769	187.843338
917.629028	195.527618
916.657104	195.492310
915.685059	223.746826
914.712769	172.279648
913.740356	187.673767
912.767761	187.639862
911.794983	190.175919
910.822021	187.572067
909.848877	192.676208
908.875549	174.661530
907.902039	177.198059
906.928406	179.733658
905.954590	177.134018
904.980530	179.668686
904.006348	192.467361
903.031982	184.735275
902.057434	187.267181
901.082703	187.233322
900.107849	171.813202
899.132751	184.601700
898.157532	189.695206
897.182068	205.038818
896.206482	194.751648
895.230713	184.468185
894.254761	194.681183
893.278625	212.573883
892.302307	171.564743
891.325806	189.455139
890.349182	189.420853
889.372314	235.453583
888.395325	181.675858
887.418091	199.551437
886.440735	186.725876
885.463196	191.806915
884.485474	189.215240
883.507568	196.850479
882.529480	194.258804
881.551270	217.223785
880.572815	235.070236
879.594238	194.153290
878.615417	191.563934
877.636475	232.388809
876.657349	186.388031
875.677979	199.118256
874.698486	209.291519
873.718811	209.253601
872.739014	196.458633
871.758972	221.932526
870.778748	214.240845
869.798401	214.202026
868.817810	209.064072
867.837097	201.378876
866.856140	203.891022
865.875061	216.594925
864.893799	185.983093
863.912354	201.232895
862.930725	168.088135
861.948914	241.901169
860.966919	211.306900
859.984741	178.178314
859.002441	185.780838
858.019897	155.213364
857.037231	200.977554
856.054321	216.202438
855.071289	198.361542
854.088074	198.325546
853.104614	193.205215
852.121033	221.128998
851.137268	170.263840
850.153320	215.967163
849.169189	205.766647
848.184937	180.330612
847.200439	195.534317
846.215759	185.343033
845.230896	187.847870
844.245911	205.579926
843.260681	197.929901
842.275330	197.893967
841.289795	197.858017
840.304016	202.894455
839.318115	205.393311
838.332031	190.144455
837.345764	162.227112
836.359314	152.060287
835.372681	195.108582
834.385864	177.339218
833.398865	200.103592
832.411743	202.599731
831.424377	189.902725
830.436829	227.841843
829.449158	187.302582
828.461243	207.513779
827.473206	174.583511
826.484924	177.081497
825.496521	151.756546
824.507935	199.776443
823.519104	204.796829
822.530151	194.647995
821.541016	169.338226
820.551697	166.780457
819.562195	197.068314
818.572510	186.928238
817.582642	179.317429
816.592590	189.385361
815.602356	196.924942
814.611938	209.510193
813.621399	209.472061
812.630615	184.200943
811.639648	189.213089
810.648560	189.178650
809.657227	163.924988
808.665771	156.330750
807.674072	189.075348
806.682251	168.876556
805.690186	201.606934
804.697998	188.972076
803.705566	161.226807
802.713013	214.090347
801.720276	206.496597
800.727356	178.763260
799.734253	198.869370
798.740906	178.698135
797.747437	186.214828
796.753784	193.728760
795.759949	173.569473
794.765930	178.567917
793.771729	168.477036
792.777344	173.474579
791.782776	191.038620
790.788025	150.792465
789.793091	178.405228
788.798035	183.397278
787.802734	183.363846
786.807251	183.330399
785.811584	188.318802
784.815796	198.326294
783.819763	170.680115
782.823547	155.591705
781.827148	203.235962
780.830627	185.638489
779.833862	185.604614
778.836975	173.032196
777.839844	160.464340
776.842529	203.050613
775.845093	162.912125
774.847412	170.400024
773.849609	165.358078
772.851563	185.367645
771.853394	142.757111
770.854980	182.795914
769.856445	195.280518
768.857666	182.729156
767.858765	195.209198
766.859680	162.644623
765.860352	190.134369
764.860901	182.595718
763.861206	185.063217
762.861389	180.028610
761.861389	182.495667
760.861145	154.968002
759.860779	187.427032
758.860168	169.902786
757.859436	192.354767
756.858521	184.826645
755.857361	182.295670
754.856079	179.765594
753.854614	182.229019
752.852905	197.170700
751.851074	192.143906
750.848999	177.139252
749.846802	194.568100
748.844421	182.062485
747.841797	187.016296
746.839050	169.530426
745.836121	204.396362
744.832947	204.358978
743.829651	191.862961
742.826111	196.810394
741.822449	186.811127
740.818604	194.248032
739.814514	191.722580
738.810303	196.666382
737.805847	199.119385
736.801270	164.243423
735.796448	171.677612
734.791504	216.423447
733.786316	193.999283
732.781006	186.503632
731.775452	203.873291
730.769775	166.548904
729.763855	231.137482
728.757751	196.306625
727.751526	206.208435
726.745056	201.202698
725.738403	186.264664
724.731628	218.510498
723.724609	206.057373
722.717407	198.573135
721.710083	173.719650
720.702515	215.869141
719.694763	198.463989
718.686829	156.261749
717.678711	188.471680
716.670410	166.122208
715.661987	176.007690
714.653320	230.503006
713.644470	141.250137
712.635437	178.388504
711.626221	180.832962
710.616821	178.323090
709.607178	200.576691
708.597412	198.064102
707.587463	198.027771
706.577332	173.242508
705.567017	163.312973
704.556458	163.283005
703.545776	165.726578
702.534912	180.534637
701.523804	158.247894
700.512573	182.940552
699.501099	163.133240
698.489502	165.574570
697.477661	197.664688
696.465698	160.573074
695.453491	165.483398
694.441101	204.964172
693.428589	195.050568
692.415833	192.546204
691.402893	197.447021
690.389771	177.669678
689.376465	180.104233
688.362976	197.338242
687.349304	177.571793
686.335449	160.278427
685.321411	160.248978
684.307190	184.868683
683.292725	197.157028
682.278137	170.016693
681.263367	192.157455
680.248352	197.048355
679.233215	164.997650
678.217834	162.505127
677.202332	182.169220
676.186584	196.903488
675.170654	169.798035
674.154541	194.370697
673.138306	191.875015
672.121826	157.406967
671.105164	196.722519
670.088318	164.724808
669.071289	201.566406
668.054016	213.817703
667.036621	208.863907
666.019043	191.628098
665.001282	174.398605
663.983276	179.278244
662.965149	164.512772
661.946777	184.122192
660.928223	184.088303
659.909546	188.962524
658.890625	176.659714
657.871521	169.267715
656.852234	181.500076
655.832764	164.300888
654.813110	208.403046
653.793274	196.107925
652.773254	218.129883
651.752991	210.738373
650.732605	169.049637
649.711975	171.468048
648.691223	191.029190
647.670227	195.891281
646.649048	205.647949
645.627747	183.580399
644.606201	178.651993
643.584473	173.725403
642.562561	198.157242
641.540466	203.012573
640.518127	198.084183
639.495667	202.937744
638.473022	198.011154
637.450134	173.533340
636.427063	185.719742
635.403870	210.117798
634.380432	163.666229
633.356812	175.847702
632.333008	161.163986
631.309021	205.079971
630.284851	185.514313
629.260498	197.682724
628.235901	185.445862
627.211182	202.489044
626.186218	180.499084
625.161133	187.781952
624.135803	160.926254
623.110291	180.399155
622.084595	182.803238
621.058716	192.517197
620.032654	172.989838
619.006409	175.393936
617.979919	185.103851
616.953308	170.458908
615.926453	167.992752
614.899414	180.132874
613.872253	158.195587
612.844849	192.232971
611.817261	187.331711
610.789490	201.891678
609.761475	187.262497
608.733337	167.775650
607.705017	199.348709
606.676453	216.326294
605.647705	179.833572
604.618774	172.511124
603.589722	155.474243
602.560425	172.447357
601.530884	203.984512
600.501221	216.086487
599.471375	191.771637
598.441284	184.455063
597.411011	208.686874
596.380615	208.648270
595.349976	181.927048
594.319153	174.617661
593.288147	181.859756
592.256897	198.796555
591.225525	191.488068
590.193970	181.758835
589.162170	218.070251
588.130188	215.607346
587.098022	176.813736
586.065674	196.154282
585.033142	225.172485
584.000427	196.081680
582.967468	198.465683
581.934387	176.650162
580.901062	198.392212
579.867554	222.545166
578.833862	200.737259
577.799988	210.372391
576.765930	183.739548
575.731628	181.288330
574.697205	210.255508
573.662537	207.800278
572.627747	200.514282
571.592712	212.554062
570.557434	200.439987
569.522034	202.817337
568.486450	188.295486
567.450623	190.674179
566.414673	197.878296
565.378479	183.365402
564.342102	173.682388
563.305542	212.239120
562.268799	202.554321
561.231812	204.927689
560.194702	183.195480
559.157349	245.822021
558.119812	214.451996
557.082092	226.457840
556.044189	231.233200
555.006042	195.066818
553.967773	216.700699
552.929260	223.882523
551.890625	231.061661
550.851746	223.799438
549.812683	214.133911
548.773376	228.527496
547.733948	221.269760
546.694275	214.014709
545.654419	250.038193
544.614441	242.780472
543.574158	223.508835
542.533752	211.452957
541.493164	223.425842
540.452332	213.776413
539.411316	242.555145
538.370178	213.697021
537.328735	237.663773
536.287170	259.221405
535.245422	199.179443
534.203430	230.333420
533.161255	235.088348
532.118896	203.865280
531.076355	237.398956
530.033630	230.162277
528.990723	222.928268
527.947571	230.076721
526.904236	222.845398
525.860718	184.472107
524.817017	201.204880
523.773132	241.879944
522.729004	244.229370
521.684692	222.638321
520.640198	234.564484
519.595520	208.197098
518.550659	205.765747
517.505615	217.688370
516.460327	239.173492
515.414856	212.824799
514.369202	222.348587
513.323364	203.184021
512.277283	200.756256
511.231079	231.782532
510.184631	215.015930
509.138000	219.753159
508.091187	214.935898
507.044159	191.018570
505.996948	231.566895
504.949554	231.523788
503.901947	205.230286
502.854126	209.963989
501.806152	231.394470
500.757965	228.966309
499.709564	219.385178
