#Wave		#Intensity
3200.600830	12.629557
3200.007080	29.468966
3199.413086	0.000000
3198.819092	0.000000
3198.224854	42.079437
3197.630615	37.865768
3197.036377	21.033358
3196.442139	71.502609
3195.847656	25.232399
3195.252930	8.409529
3194.658447	16.816513
3194.063721	21.017464
3193.468750	29.420000
3192.873779	21.011108
3192.278809	21.007931
3191.683838	21.004755
3191.088623	29.402208
3190.493164	41.996803
3189.897949	58.786633
3189.302490	20.992050
3188.706787	16.791100
3188.111328	29.379980
3187.515381	16.786020
3186.919678	29.371092
3186.323730	33.561882
3185.727783	33.556805
3185.131592	41.939659
3184.535400	20.966658
3183.939209	4.192697
3183.342773	16.768250
3182.746338	37.722851
3182.149902	29.335556
3181.553223	16.760637
3180.956543	12.568576
3180.359619	20.944456
3179.762695	4.188257
3179.165771	25.125738
3178.568604	25.121935
3177.971436	41.863552
3177.374268	25.114328
3176.776855	20.925440
3176.179443	37.660088
3175.581787	29.286743
3174.984131	20.915936
3174.386475	0.000000
3173.788574	-25.091520
3173.190674	-8.362574
3172.592773	8.361307
3171.994629	16.720081
3171.396484	25.076324
3170.798340	20.893770
3170.199951	20.890606
3169.601563	50.129860
3169.002930	50.122265
3168.404297	25.057335
3167.805664	8.351180
3167.206787	-4.174957
3166.607910	12.522974
3166.008789	25.042152
3165.409912	25.038357
3164.810547	8.344854
3164.211426	16.687180
3163.612061	16.684650
3163.012695	41.705303
3162.413086	25.019390
3161.813477	29.184862
3161.213623	50.023609
3160.614014	33.344017
3160.013916	29.171593
3159.414063	33.333908
3158.813965	33.328854
3158.213867	29.158325
3157.613525	58.307808
3157.013184	20.821060
3156.412598	24.981483
3155.812256	37.466541
3155.211426	41.623177
3154.610840	12.485059
3154.010010	20.805275
3153.409180	24.962543
3152.808105	41.597931
3152.207031	29.114134
3151.605957	8.317062
3151.004639	29.105301
3150.403320	33.258156
3149.801758	37.409748
3149.200195	45.716087
3148.598633	24.932262
3147.996826	12.464240
3147.395020	33.232929
3146.793213	33.227886
3146.191162	33.222843
3145.589111	41.522251
3144.986816	24.909569
3144.384766	33.207718
3143.782227	33.202675
3143.179932	0.000000
3142.577393	33.192596
3141.974609	37.336002
3141.371826	58.069408
3140.769043	20.735926
3140.166260	45.612110
3139.563232	33.167404
3138.960205	12.435888
3138.356934	33.157333
3137.753662	37.296333
3137.150391	37.290668
3136.546875	45.570564
3135.943359	41.421494
3135.339600	28.990641
3134.735840	20.704454
3134.132080	12.420786
3133.528076	20.698164
3132.924072	37.251038
3132.320068	37.245377
3131.715820	24.826479
3131.111572	0.000000
3130.507080	41.364891
3129.902588	12.407581
3129.298096	20.676159
3128.693604	49.615242
3128.088867	41.339752
3127.483887	53.733505
3126.878906	16.530874
3126.273926	12.396271
3125.668945	28.920235
3125.063721	8.261668
3124.458252	8.260412
3123.853027	16.518312
3123.247559	16.515800
3122.641846	57.796513
3122.036133	20.638474
3121.430420	20.635336
3120.824707	53.643711
3120.218750	16.503248
3119.612549	28.876291
3119.006592	24.747341
3118.400391	12.371789
3117.793945	41.233025
3117.187500	20.613377
3116.581055	37.098431
3115.974609	32.971367
3115.367920	4.120794
3114.760986	32.961334
3114.154297	28.836781
3113.547363	37.070221
3112.940186	70.010872
3112.333008	45.294258
3111.725830	32.936264
3111.118408	41.164066
3110.510986	12.347341
3109.903564	8.230308
3109.295898	28.801691
3108.688232	45.252911
3108.080566	45.246021
3107.472656	49.351784
3106.864746	41.120224
3106.256592	20.556982
3105.648438	41.107704
3105.040039	45.211590
3104.431885	24.657112
3103.823486	49.306717
3103.214844	12.324802
3102.606201	53.399342
3101.997559	-8.214032
3101.388672	20.531952
3100.779785	0.000000
3100.170898	45.156536
3099.561768	41.045143
3098.952637	57.454449
3098.343262	12.309792
3097.733887	36.923748
3097.124512	41.020138
3096.514893	20.506945
3095.905273	53.309929
3095.295410	53.301807
3094.685791	32.796112
3094.075684	20.494448
3093.465820	32.786118
3092.855713	40.976402
3092.245361	53.261204
3091.635254	40.963913
3091.024658	4.095767
3090.414307	24.570854
3089.803711	49.134216
3089.193115	36.845047
3088.582275	20.466349
3087.971436	4.092646
3087.360596	4.092022
3086.749512	57.279568
3086.138428	40.907738
3085.527100	36.811352
3084.915771	44.984791
3084.304443	4.088902
3083.692871	44.971069
3083.081299	28.613588
3082.469482	24.522192
3081.857910	40.864086
3081.245850	20.428926
3080.634033	12.255486
3080.021973	44.929924
3079.409668	40.839153
3078.797607	44.916214
3078.185059	32.661354
3077.572754	40.820461
3076.960205	40.814232
3076.347656	61.212009
3075.734863	40.801777
3075.122070	65.272881
3074.509033	36.710392
3073.895996	36.704788
3073.282959	32.621498
3072.669922	53.001842
3072.056641	32.611538
3071.443115	61.137302
3070.829834	48.902374
3070.216064	48.894909
3069.602539	36.665581
3068.988770	65.173302
3068.375000	24.436256
3067.760986	61.081310
3067.146973	48.857586
3066.532715	52.920971
3065.918701	24.421331
3065.304199	36.626404
3064.689941	56.965702
3064.075439	12.205071
3063.460693	24.406414
3062.846191	28.469801
3062.231445	40.664928
3061.616455	44.724586
3061.001465	36.587254
3060.386475	52.840179
3059.771240	32.512066
3059.156006	12.190162
3058.540771	8.125532
3057.925293	44.683598
3057.309814	36.553719
3056.694092	64.974457
3056.078369	56.843960
3055.462646	40.596622
3054.846680	40.590416
3054.230713	44.642632
3053.614502	56.809212
3052.998291	48.686165
3052.382080	28.395920
3051.765625	56.783157
3051.149170	36.497875
3050.532715	32.437595
3049.916016	40.540794
3049.299316	32.427673
3048.682373	40.528393
3048.065430	56.731075
3047.448486	40.515999
3046.831299	36.458820
3046.214111	40.503605
3045.596680	64.795853
3044.979248	28.343849
3044.361816	52.630524
3043.744141	24.287294
3043.126465	48.567154
3042.508545	32.373150
3041.890869	40.460243
3041.272705	52.590267
3040.654785	52.582222
3040.036621	60.662506
3039.418213	48.522579
3038.799805	60.643940
3038.181396	28.296173
3037.562988	56.583683
3036.944336	56.575020
3036.325439	32.323635
3035.706543	52.517864
3035.087646	52.509823
3034.468750	76.733376
3033.849609	68.645668
3033.230469	48.448345
3032.611084	56.514412
3031.991699	56.505760
3031.372070	56.497105
3030.752441	48.418674
3030.132813	48.411259
3029.513184	52.437496
3028.893066	36.297321
3028.273193	56.453850
3027.653076	68.540604
3027.032959	64.498917
3026.412598	32.244518
3025.792480	32.239578
3025.171875	60.439945
3024.551270	36.258411
3023.930664	32.224758
3023.310059	60.412167
3022.689209	68.456627
3022.068115	68.446136
3021.447266	36.230637
3020.826172	56.350128
3020.204834	32.195137
3019.583496	60.356628
3018.962158	44.254742
3018.340576	16.090166
3017.718994	56.306950
3017.097412	60.319626
3016.475586	64.331070
3015.853760	68.341278
3015.231689	20.097294
3014.609619	36.169582
3013.987549	56.255165
3013.365234	60.264145
3012.742920	44.186928
3012.120361	84.343925
3011.497803	40.157612
3010.875244	28.106018
3010.252441	72.261528
3009.629639	36.125221
3009.006836	76.252655
3008.383789	80.253639
3007.760498	84.253395
3007.137451	80.229012
3006.514160	48.130020
3005.890625	60.153294
3005.267090	12.028812
3004.643555	72.161797
3004.019775	48.100483
3003.395996	44.085342
3002.772217	36.064289
3002.148193	72.117500
3001.524170	68.100517
3000.899902	40.052979
3000.275635	60.070244
2999.651367	52.052887
2999.026855	88.075974
2998.402344	40.028385
2997.777588	48.026688
2997.152832	68.027359
2996.528076	100.024872
2995.903076	68.006470
2995.278076	63.996254
2994.653076	71.984726
2994.027832	63.976597
2993.402344	91.952232
2992.777100	51.965015
2992.151367	47.960339
2991.525879	91.909859
2990.900146	55.936535
2990.274414	67.912498
2989.648438	67.902069
2989.022461	67.891632
2988.396240	31.944094
2987.770264	31.939184
2987.143799	51.893200
2986.517578	75.832245
2985.891113	67.839478
2985.264404	79.798882
2984.637695	43.882641
2984.010986	39.887177
2983.384033	63.809669
2982.757080	63.799858
2982.130127	63.790051
2981.502930	83.711571
2980.875732	99.641304
2980.248291	83.685829
2979.620850	87.657387
2978.993408	67.724838
2978.365723	75.680824
2977.738037	63.721416
2977.110107	55.747662
2976.482178	71.664543
2975.854248	87.576523
2975.226074	71.642494
2974.597900	55.713367
2973.969482	103.451767
2973.341309	71.609436
2972.712646	95.464554
2972.083984	47.724934
2971.455322	99.411644
2970.826660	135.179031
2970.197754	99.381050
2969.568604	63.594086
2968.939697	71.532333
2968.310547	79.468140
2967.681152	95.347084
2967.051758	75.471489
2966.422363	59.573586
2965.792725	99.274025
2965.163086	59.555244
2964.533203	91.303978
2963.903564	99.228172
2963.273438	79.370316
2962.643311	91.261810
2962.013184	67.443993
2961.383057	79.333656
2960.752686	107.083939
2960.122314	114.998367
2959.491699	91.191559
2958.861084	103.070229
2958.230225	75.308952
2957.599609	79.260368
2956.968506	63.398525
2956.337646	67.350555
2955.706299	102.990860
2955.075195	95.053841
2954.443848	102.959129
2953.812500	98.983902
2953.180908	75.216171
2952.549316	71.246445
2951.917725	118.725777
2951.285889	79.138321
2950.653809	146.383331
2950.021973	126.582283
2949.389893	146.338196
2948.757568	98.861923
2948.125244	118.616020
2947.492920	126.504242
2946.860352	110.674149
2946.227783	75.088737
2945.595215	130.397171
2944.962402	154.081985
2944.329590	134.307159
2943.696533	114.538445
2943.063477	114.520782
2942.430420	146.090179
2941.797119	146.067657
2941.163574	161.833786
2940.530273	153.915710
2939.896729	201.243332
2939.262939	185.430939
2938.629150	157.789215
2937.995361	212.982574
2937.361328	181.401611
2936.727295	220.802658
2936.093262	220.768585
2935.458984	189.201019
2934.824707	248.288010
2934.190186	252.190170
2933.555664	212.752609
2932.921143	263.930084
2932.286377	236.318817
2931.651367	236.282349
2931.016602	283.495056
2930.381592	263.767151
2929.746338	267.662659
2929.111084	247.943283
2928.475830	263.645020
2927.840332	310.817017
2927.204834	330.437927
2926.569336	287.121948
2925.933594	302.807892
2925.297607	302.761139
2924.661865	294.851654
2924.025879	310.529114
2923.389648	306.550995
2922.753418	345.798981
2922.117188	330.029846
2921.480713	298.552307
2920.844238	314.217041
2920.207764	278.824524
2919.571045	329.825958
2918.934082	314.071411
2918.297363	314.022888
2917.660156	310.049683
2917.023193	341.394348
2916.385986	357.035431
2915.748779	356.980255
2915.111328	325.547058
2914.473877	298.045197
2913.836182	337.209534
2913.198486	333.236969
2912.560791	325.345795
2911.922852	317.457062
2911.284912	356.594147
2910.646729	364.375031
2910.008545	360.401276
2909.370361	340.761566
2908.731934	340.708862
2908.093506	387.643219
2907.455078	395.413239
2906.816406	379.694580
2906.177490	379.635834
2905.538574	406.969269
2904.899658	367.780701
2904.260498	508.554230
2903.621338	391.135040
2902.982178	426.271210
2902.342773	449.666107
2901.703369	414.410706
2901.063721	476.889465
2900.424072	461.182373
2899.784424	449.387848
2899.144531	488.389465
2898.504639	472.687836
2897.864502	484.332367
2897.224365	507.689209
2896.583984	499.801239
2895.943848	441.162476
2895.303223	456.708130
2894.662842	534.695129
2894.021973	569.732849
2893.381348	526.726196
2892.740479	553.952148
2892.099609	561.667297
2891.458496	518.681824
2890.817383	557.594116
2890.176025	549.710449
2889.534668	557.421387
2888.893311	518.360596
2888.251709	537.764526
2887.610107	541.577454
2886.968262	510.328461
2886.326416	576.464966
2885.684570	572.481201
2885.042480	630.799927
2884.400391	650.168274
2883.758057	661.745422
2883.115723	723.915161
2882.473389	704.345886
2881.830811	844.305908
2881.188232	867.516296
2880.545410	1030.745239
2879.902588	1046.141479
2879.259766	1115.970459
2878.616699	1100.246338
2877.973633	1037.880737
2877.330322	1123.224731
2876.687012	901.549316
2876.043457	909.180298
2875.399902	874.076294
2874.756348	780.720398
2874.112549	745.647095
2873.468750	663.988953
2872.824707	601.768005
2872.180664	636.610596
2871.536621	613.224854
2870.892334	574.324097
2870.248047	531.555359
2869.603760	601.301453
2868.958984	577.935608
2868.314453	562.333313
2867.669678	523.470459
2867.024902	507.881409
2866.379883	523.308044
2865.734863	534.854065
2865.089844	527.020752
2864.444580	515.315308
2863.799316	546.226990
2863.153809	596.495728
2862.508301	534.439148
2861.862549	569.205566
2861.216797	557.502563
2860.571045	557.416016
2859.925049	603.773560
2859.279053	541.763977
2858.632813	634.539246
2857.986572	595.755310
2857.340332	649.813965
2856.693848	638.111023
2856.047363	688.279541
2855.400635	657.243591
2854.753906	718.990112
2854.107178	664.769287
2853.460205	784.460510
2852.813232	776.611206
2852.166016	733.996033
2851.518799	822.720337
2850.871338	818.730591
2850.223877	837.910095
2849.576416	841.640625
2848.928711	980.474792
2848.281006	1003.479675
2847.633301	1026.477295
2846.985352	1010.884460
2846.337158	1033.873779
2845.688965	1025.998901
2845.040771	1164.674805
2844.392578	1149.069946
2843.743896	1083.350586
2843.095459	1052.344238
2842.446777	1052.180664
2841.798096	1048.163574
2841.149170	963.235840
2840.500244	959.233704
2839.851074	855.087463
2839.202148	874.210205
2838.552734	850.970947
2837.903320	689.140808
2837.253906	723.677734
2836.604492	581.161438
2835.954834	581.071045
2835.304932	500.182007
2834.655029	519.338989
2834.005127	411.560181
2833.354980	476.874054
2832.704834	388.361176
2832.054688	384.456207
2831.404297	345.956726
2830.753906	334.372803
2830.103271	326.635223
2829.452637	292.004883
2828.801758	261.226868
2828.150879	241.981339
2827.500000	234.262924
2826.848877	238.066238
2826.197754	214.994095
2825.546387	211.122055
2824.895020	145.843430
2824.243408	180.357224
2823.591797	172.655563
2822.940186	176.464874
2822.288330	222.464539
2821.636475	187.914917
2820.984619	191.720047
2820.332520	184.022583
2819.680176	176.327515
2819.028076	157.136993
2818.375488	176.272583
2817.723145	168.582291
2817.070557	157.063583
2816.417725	149.378662
2815.764893	137.866516
2815.112061	168.477264
2814.458984	153.137299
2813.805908	149.285599
2813.152832	145.435089
2812.499512	130.105865
2811.845947	160.693954
2811.192383	156.843460
2810.538818	168.293579
2809.885010	152.970322
2809.231201	156.770142
2808.577393	152.922638
2807.923340	141.431381
2807.269287	99.368721
2806.614990	160.493683
2805.960693	126.082520
2805.306152	126.062859
2804.651611	175.696579
2803.997070	103.110176
2803.342285	129.822189
2802.687500	110.713425
2802.032471	141.233032
2801.377441	171.743103
2800.722412	141.188980
2800.067139	133.536301
2799.411621	118.256561
2798.756348	129.680511
2798.100586	129.660278
2797.445068	118.201225
2796.789307	144.869217
2796.133301	152.470123
2795.477539	152.446335
2794.821289	148.611969
2794.165283	137.158875
2793.509033	114.281227
2792.852539	171.395081
2792.196045	148.519226
2791.539551	125.650497
2790.882813	129.437881
2790.226074	114.192062
2789.569092	144.620697
2788.912109	117.961624
2788.255127	140.770920
2787.597900	110.316742
2786.940430	102.692650
2786.283203	83.662430
2785.625488	121.671799
2784.968018	117.851151
2784.310303	125.434853
2783.652588	121.614799
2782.994629	167.194229
2782.336426	132.974640
2781.678467	136.752548
2781.020264	170.913986
2780.361816	144.304810
2779.703369	113.907051
2779.044922	121.481873
2778.386230	113.871460
2777.727539	144.214645
2777.068604	110.041344
2776.409668	121.405952
2775.750732	125.180328
2775.091553	106.197006
2774.432373	132.725510
2773.772949	136.496338
2773.113525	128.893051
2772.453857	98.549866
2771.794189	136.432327
2771.134521	128.832611
2770.474609	162.909882
2769.814697	125.004311
2769.154541	151.496689
2768.494385	166.620300
2767.833984	140.090607
2767.173584	155.211258
2766.513184	151.401947
2765.852539	166.516083
2765.191895	155.138443
2764.531006	177.813812
2763.870117	147.524551
2763.209229	139.937286
2762.548096	151.259888
2761.886719	128.550797
2761.225586	147.432251
2760.563965	136.070007
2759.902588	98.257408
2759.240967	120.913269
2758.579102	132.228195
2757.917236	128.430145
2757.255371	154.847397
2756.593262	162.375519
2755.931152	135.921005
2755.269043	139.674728
2754.606689	139.652863
2753.944092	147.178619
2753.281494	162.248459
2752.618896	124.496758
2751.956055	147.109497
2751.293213	139.543564
2750.630371	181.001144
2749.967285	143.270126
2749.303955	105.550926
2748.640625	154.532516
2747.977295	195.961746
2747.313721	165.787811
2746.650146	188.365738
2745.986572	158.202438
2745.322754	135.580841
2744.658691	173.215042
2743.994873	161.893036
2743.330566	169.396408
2742.666504	158.078537
2742.002197	150.527390
2741.337646	158.028992
2740.673096	203.148285
2740.008545	150.456635
2739.343750	165.476349
2738.678955	180.491364
2738.013916	169.184128
2737.348877	184.193832
2736.683594	165.372620
2736.018311	139.041534
2735.353027	169.078049
2734.687500	221.645355
2734.021973	169.025040
2733.356201	187.776138
2732.690430	161.462158
2732.024658	161.436844
2731.358643	198.949081
2730.692383	168.892532
2730.026367	195.134094
2729.359863	210.111450
2728.693604	191.321472
2728.027100	228.799591
2727.360352	180.010773
2726.693604	217.478897
2726.026855	213.695724
2725.359863	206.165268
2724.692871	269.846741
2724.025635	209.847855
2723.358398	213.561615
2722.691162	221.020309
2722.023682	247.204254
2721.355957	235.930664
2720.688477	224.660599
2720.020508	235.856598
2719.352783	250.792236
2718.684814	220.812225
2718.016602	239.487518
2717.348389	209.518677
2716.680176	243.153137
2716.011719	239.374725
2715.343262	220.638916
2714.674561	216.865219
2714.005859	265.431244
2713.337158	213.059219
2712.668213	216.763046
2711.999023	269.042877
2711.329834	242.847794
2710.660645	254.016235
2709.991455	253.976334
2709.321777	246.467712
2708.652344	227.760117
2707.982666	242.657074
2707.312988	227.688553
2706.643066	205.260696
2705.972900	223.885559
2705.302979	208.927017
2704.632813	231.275696
2703.962402	216.320679
2703.291992	220.015762
2702.621582	186.424728
2701.950928	171.483780
2701.280273	238.548630
2700.609375	171.429871
2699.938477	178.855209
2699.267334	242.161682
2698.596191	204.873825
2697.925049	189.944031
2697.253662	186.190353
2696.582031	171.268188
2695.910645	174.963882
2695.239014	208.434814
2694.567139	200.959091
2693.895264	189.764847
2693.223145	230.658234
2692.551270	193.424850
2691.878906	163.641434
2691.206543	174.771301
2690.534180	223.077194
2689.861816	178.433670
2689.189209	178.405594
2688.516357	182.093719
2687.843506	159.771378
2687.170654	200.611542
2686.497559	159.721085
2685.824463	193.120682
2685.151123	181.950455
2684.477783	189.347183
2683.804199	193.029480
2683.130615	192.999100
2682.457031	155.859344
2681.783203	192.938324
2681.109375	211.456787
2680.435303	166.913284
2679.761230	200.264389
2679.086914	163.152695
2678.412598	170.541855
2677.738281	200.169785
2677.063721	226.082092
2676.389160	185.283997
2675.714355	181.549713
2675.039551	174.112091
2674.364502	170.380722
2673.689453	166.650543
2673.014404	199.949142
2672.339111	174.002380
2671.663574	192.482941
2670.988037	199.854630
2670.312500	203.523560
2669.636719	181.292404
2668.960938	207.158661
2668.285156	199.728653
2667.609131	133.131439
2666.932861	203.363205
2666.256592	210.725006
2665.580322	170.031967
2664.903809	158.917862
2664.227295	221.710892
2663.550781	181.035339
2662.874023	166.230728
2662.197021	210.525711
2661.520020	147.714050
2660.843018	195.690231
2660.165771	214.117798
2659.488525	195.628510
2658.811035	195.597656
2658.133545	210.326553
2657.455811	173.399796
2656.778076	180.749985
2656.100342	132.774963
2655.422363	217.569061
2654.744385	188.038498
2654.066162	199.068176
2653.387939	221.151947
2652.709473	195.320053
2652.031006	180.550415
2651.352539	217.363129
2650.673828	195.227585
2649.994873	213.611557
2649.316162	173.071686
2648.636963	173.044373
2647.958008	206.147980
2647.278809	184.031631
2646.599365	224.483139
2645.919922	195.011932
2645.240479	180.265579
2644.560791	187.593719
2643.880859	194.919556
2643.201172	227.983078
2642.520996	220.593933
2641.841064	198.503189
2641.160889	154.366974
2640.480469	187.416000
2639.800049	194.734879
2639.119629	146.946503
2638.438965	176.307938
2637.758301	238.712616
2637.077393	187.267990
2636.396484	187.238403
2635.715332	176.196518
2635.034180	227.551208
2634.353027	212.836838
2633.671631	194.458099
2632.989990	190.758911
2632.308350	172.389465
2631.626709	216.369583
2630.944824	187.001755
2630.262939	201.636688
2629.581055	172.280472
2628.898926	212.567810
2628.216553	201.541046
2627.534180	216.164383
2626.851807	172.171524
2626.169189	227.083954
2625.486572	201.413574
2624.803711	208.704697
2624.120850	194.028061
2623.437988	230.600632
2622.754883	175.667923
2622.071533	234.186844
2621.388184	182.929535
2620.704834	186.558594
2620.021240	237.733139
2619.337646	208.440689
2618.653809	208.407700
2617.969971	197.407623
2617.286133	175.445679
2616.602051	175.417908
2615.917725	211.929749
2615.233398	193.629288
2614.549072	193.598633
2613.864502	120.523468
2613.179932	197.188995
2612.495117	215.413116
2611.810303	222.679993
2611.125488	156.946289
2610.440430	197.064133
2609.755127	218.925476
2609.069824	240.779877
2608.384521	233.446533
2607.698975	196.939316
2607.013428	189.615234
2606.327637	207.814545
2605.641846	215.072205
2604.956055	222.327560
2604.270020	204.071655
2603.583740	225.900681
2602.897461	222.221893
2602.211182	211.259476
2601.524658	207.584167
2600.838135	218.475021
2600.151367	218.440399
2599.464600	192.925110
2598.777832	211.092117
2598.090820	174.669235
2597.403564	192.833374
2596.716309	200.078384
2596.029053	196.409454
2595.341553	218.198120
2594.654053	207.255356
2593.966309	218.128937
2593.278564	199.919815
2592.590820	214.425430
2591.902832	232.560196
2591.214600	196.191544
2590.526367	210.690826
2589.838135	152.545029
2589.149658	167.046616
2588.461182	203.328842
2587.772461	188.775406
2587.083740	217.783218
2586.394775	192.344650
2585.705811	210.456970
2585.016846	192.283615
2584.327637	239.409531
2583.638184	221.237320
2582.948975	239.333542
2582.259277	206.664352
2581.569824	206.631546
2580.879883	210.223282
2580.190186	199.318024
2579.500244	206.533157
2578.810059	206.500381
2578.119873	206.467590
2577.429688	213.678131
2576.739258	213.644211
2576.048584	199.128235
2575.358154	206.336487
2574.667236	217.161819
2573.976563	195.414597
2573.285645	209.856415
2572.594482	242.381836
2571.903320	180.853241
2571.212158	224.222382
2570.520752	238.650436
2569.829102	245.843201
2569.137451	227.730316
2568.445801	187.938004
2567.753906	227.657944
2567.062012	216.782639
2566.370117	234.810547
2565.677979	195.042374
2564.985596	162.509476
2564.293213	216.644867
2563.600830	252.712173
2562.908203	216.576004
2562.215332	230.977676
2561.522705	223.724060
2560.829590	194.825455
2560.136719	180.365265
2559.443604	212.797165
2558.750244	198.338699
2558.056885	180.279236
2557.363525	230.720734
2556.669922	187.430786
2555.976074	266.686005
2555.282227	212.594208
2554.588379	230.573990
2553.894287	237.741592
2553.200195	208.891205
2552.505859	241.266968
2551.811523	237.628159
2551.117188	230.390640
2550.422607	212.357574
2549.727783	226.718628
2549.032959	201.495590
2548.338135	230.244034
2547.643066	208.625443
2546.947998	212.188660
2546.252686	215.750732
2545.557373	219.311661
2544.861816	215.682053
2544.166260	172.518173
2543.470703	251.548950
2542.774902	244.322937
2542.078857	219.137146
2541.382813	237.061462
2540.686768	244.206253
2539.990479	244.167358
2539.294189	197.456863
2538.597656	240.500046
2537.901123	218.927856
2537.204346	218.892990
2536.507568	236.797302
2535.810791	211.648727
2535.113770	243.895264
2534.416504	236.684158
2533.719238	207.962036
2533.021973	229.438782
2532.324463	211.480179
2531.626953	215.030319
2530.929199	229.329117
2530.231445	240.040665
2529.533447	222.091782
2528.835449	214.893265
2528.137451	250.668854
2527.439209	218.405182
2526.740723	218.370361
2526.042236	239.811172
2525.343750	243.351654
2524.645020	211.109680
2523.946289	250.429169
2523.247314	253.966232
2522.548340	246.772888
2521.849121	257.461090
2521.149902	278.871704
2520.450684	278.827209
2519.751221	225.170685
2519.051514	228.708328
2518.351807	217.952850
2517.652100	221.490509
2516.952148	246.458176
2516.252197	242.847565
2515.552002	267.803864
2514.851807	224.919342
2514.151367	235.592194
2513.450928	203.433517
2512.750244	231.948563
2512.049561	249.750885
2511.348877	203.336121
2510.647949	263.938110
2509.946777	242.498993
2509.245605	224.632324
2508.544434	242.421585
2507.843018	260.205139
2507.141602	270.855255
2506.439941	274.375336
2505.738281	245.829544
2505.036377	235.103745
2504.334473	270.682312
2503.632568	235.028671
2502.930420	238.551605
2502.228027	270.552612
2501.525635	259.831421
2500.823242	266.907440
2500.120605	291.772186
2499.417969	231.245880
2498.715088	202.752441
2498.012207	291.632355
2497.309082	256.026520
2496.605957	280.873108
2495.902588	223.951614
2495.199219	227.470047
2494.495605	255.862900
2493.791992	223.844254
2493.088379	241.571045
2492.384521	284.155823
2491.680664	245.045212
2490.976563	209.497910
2490.272461	241.416626
2489.568115	248.477371
2488.863770	234.241211
2488.159180	259.043549
2487.454590	298.029846
2486.749756	248.318481
2486.044922	266.012970
2485.339844	237.600250
2484.634766	223.379425
2483.929688	258.795074
2483.224365	237.486252
2482.519043	272.888306
2481.813477	209.062775
2481.107666	230.286545
2480.402100	244.418915
2479.696045	244.379807
2478.990234	247.881866
2478.284180	240.761002
2477.577881	247.802536
2476.871582	247.762878
2476.165039	307.884583
2475.458496	233.530228
2474.751953	240.568390
2474.045166	265.290314
2473.338379	272.321106
2472.631348	282.885742
2471.924072	251.020889
2471.217041	250.980698
2470.509521	233.268646
2469.802246	282.704590
2469.094482	261.459869
2468.386963	240.221939
2467.679199	243.715576
2466.971191	296.649719
2466.263184	243.637512
2465.554932	218.885590
2464.846680	292.977325
2464.138428	282.342529
2463.429932	275.239868
2462.721436	225.801666
2462.012695	257.513763
2461.303955	246.891434
2460.594971	260.957672
2459.885986	289.122986
2459.176758	271.450012
2458.467529	278.456024
2457.758057	267.838806
2457.048584	271.319519
2456.338867	267.752960
2455.629150	267.710022
2454.919434	260.623230
2454.209473	257.060089
2453.499512	288.706116
2452.789307	288.659821
2452.078857	260.456116
2451.368408	249.857010
2450.657959	270.928223
2449.947266	281.438721
2449.236572	249.736816
2448.525879	274.314758
2447.814697	239.107819
2447.103760	302.352570
2446.392578	309.334381
2445.681152	284.682556
2444.969727	256.524597
2444.258301	295.131622
2443.546631	245.903549
2442.834717	280.987518
2442.122803	284.454224
2441.410889	266.852478
2440.698730	270.320313
2439.986572	280.807190
2439.274170	333.404999
2438.561768	249.136368
2437.849121	291.197174
2437.136475	294.658264
2436.423584	252.523666
2435.710693	241.962997
2434.997803	269.973328
2434.284424	290.963470
2433.571289	322.461914
2432.857910	301.383392
2432.144287	283.815521
2431.430908	311.796570
2430.717041	322.254791
2430.003174	290.683167
2429.289307	304.643066
2428.575195	252.077881
2427.861084	308.045685
2427.146729	335.995850
2426.432373	321.944275
2425.717773	300.899567
2425.003174	325.339081
2424.288330	269.323486
2423.573486	307.748810
2422.858643	300.706177
2422.143555	286.673737
2421.428223	346.050476
2420.712891	279.591797
2419.997559	272.558167
2419.281982	265.526794
2418.566162	314.389069
2417.850586	293.382629
2417.134521	345.716766
2416.418457	317.728973
2415.702393	282.768219
2414.986084	296.684357
2414.269775	314.085846
2413.553223	303.567474
2412.836670	348.872009
2412.120117	289.517181
2411.403076	324.346588
2410.686279	285.937012
2409.969238	285.890991
2409.251953	264.929504
2408.534668	299.740417
2407.817383	303.176971
2407.099854	324.033569
2406.382080	310.046753
2405.664307	351.794159
2404.946533	306.464386
2404.228516	320.343018
2403.510498	292.440033
2402.792236	323.720764
2402.073975	292.345856
2401.355469	281.859558
2400.636963	320.085236
2399.918213	292.204681
2399.199463	292.157623
2398.480469	278.200531
2397.761475	271.201843
2397.042480	292.016479
2396.323242	323.251892
2395.603760	295.397675
2394.884277	288.400696
2394.164795	302.250824
2393.445068	298.728546
2392.725098	305.626465
2392.005127	340.301910
2391.285156	312.471802
2390.564941	350.606293
2389.844727	315.841888
2389.124268	322.731445
2388.403809	319.209778
2387.683105	301.812744
2386.962402	270.547119
2386.241455	291.311493
2385.520508	315.536560
2384.799316	298.151306
2384.078125	343.165375
2383.356689	298.055176
2382.635254	291.076721
2381.913818	284.100494
2381.192139	301.375092
2380.470215	311.717072
2379.748291	287.426025
2379.026367	342.778168
2378.304199	287.333313
2377.581787	301.132141
2376.859375	311.465759
2376.136963	349.477386
2375.414307	300.986420
2374.691650	328.610291
2373.968750	349.308258
2373.245850	331.962189
2372.522705	297.334808
2371.799316	297.286835
2371.076172	345.626556
2370.352783	317.925110
2369.629150	314.418640
2368.905518	317.822479
2368.181641	303.955048
2367.457764	334.987274
2366.733643	321.121521
2366.009521	334.879120
2365.285400	307.210602
2364.561035	320.965973
2363.836426	334.716919
2363.111816	320.862335
2362.387207	351.856689
2361.662354	300.064575
2360.937256	362.088409
2360.212158	365.477844
2359.487061	348.182068
2358.761719	310.211121
2358.036377	296.376068
2357.310791	354.904694
2356.584961	296.280304
2355.859375	320.344360
2355.133301	306.516571
2354.407471	292.693237
2353.681152	351.175140
2352.955078	364.887726
2352.228516	340.736267
2351.502197	320.033844
2350.775635	330.304138
2350.048828	302.729828
2349.322021	350.834656
2348.594971	330.143951
2347.867920	309.459900
2347.140869	323.161407
2346.413330	350.607819
2345.686035	347.114349
2344.958496	312.696014
2344.230713	312.645416
2343.502930	302.289551
2342.775146	319.413391
2342.047119	336.531708
2341.319092	319.310059
2340.590820	370.751709
2339.862305	374.124054
2339.133789	374.063507
2338.405273	332.828339
2337.676514	339.635834
2336.947754	319.000214
2336.218750	346.385010
2335.489746	356.615936
2334.760498	342.844452
2334.031250	335.933167
2333.301758	342.733459
2332.572266	356.385101
2331.842529	342.622498
2331.112793	376.823730
2330.382813	325.385986
2329.652832	349.305237
2328.922607	338.976654
2328.192383	393.696991
2327.462158	390.210327
2326.731689	321.700256
2326.000977	355.866058
2325.270264	331.859772
2324.539307	359.171448
2323.808350	342.012634
2323.077393	396.670380
2322.346191	341.901825
2321.614746	355.520294
2320.883301	348.626862
2320.151855	348.570374
2319.420166	331.429871
2318.688232	331.376160
2317.956299	399.636353
2317.224365	362.005005
2316.492188	338.044220
2315.760010	368.715729
2315.027588	317.453735
2314.295166	365.183258
2313.562500	371.948822
2312.829590	358.241211
2312.096924	371.828217
2311.363770	327.428619
2310.630615	412.629547
2309.897461	344.370483
2309.164063	340.905579
2308.430664	388.569305
2307.697021	374.874481
2306.963379	408.887634
2306.229492	388.380249
2305.495605	361.066895
2304.761719	316.733734
2304.027344	360.949738
2303.293213	360.891174
2302.558838	377.853027
2301.824219	384.598755
2301.089600	401.551239
2300.354736	309.620605
2299.619873	370.804047
2298.885010	377.546509
2298.149658	360.481384
2297.414551	374.023712
2296.679199	370.563354
2295.943604	326.314728
2295.208008	353.450226
2294.472412	383.974915
2293.736572	360.130371
2293.000488	363.468781
2292.264404	356.617035
2291.528320	359.954926
2290.791992	417.615723
2290.055420	397.179688
2289.318848	373.356140
2288.582275	339.359528
2287.845459	413.951385
2287.108398	369.781708
2286.371582	396.857178
2285.634277	383.227112
2284.896973	403.509888
2284.159668	400.054016
2283.422119	389.819794
2282.684570	355.864563
2281.946777	362.584015
2281.208740	338.808472
2280.470703	372.628754
2279.732666	392.890076
2278.994385	386.053314
2278.256104	375.832916
2277.517578	382.542480
2276.779053	423.097656
2276.040283	399.339233
2275.301514	409.425323
2274.562500	402.592499
2273.823486	405.909576
2273.084229	331.438904
2272.344971	429.447906
2271.605469	402.330627
2270.865967	392.124023
2270.126221	408.959381
2269.386475	371.720764
2268.646484	381.796478
2267.906494	405.381622
2267.166260	368.161713
2266.426025	401.872620
2265.685547	398.430664
2264.945068	388.237885
2264.204346	351.044952
2263.463623	394.861267
2262.722656	391.422668
2261.981689	425.096771
2261.240723	418.281097
2260.499268	360.877350
2259.758057	401.284241
2259.016602	424.820007
2258.274902	407.895630
2257.533203	431.422638
2256.791260	407.762787
2256.049316	367.263672
2255.307129	437.949554
2254.564941	434.509918
2253.822754	407.497192
2253.080322	407.430817
2252.337646	397.264496
2251.594971	427.494659
2250.852051	420.693909
2250.109131	427.355347
2249.366211	390.276703
2248.623047	403.668732
2247.879639	383.422821
2247.136230	433.802460
2246.392578	413.558197
2245.648926	373.150208
2244.905273	379.811707
2244.161377	473.847107
2243.417236	416.648651
2242.673096	460.254517
2241.928955	426.589722
2241.184570	389.577484
2240.439941	443.240021
2239.695313	453.239716
2238.950439	453.165802
2238.205566	402.748352
2237.460693	365.770081
2236.715576	382.486115
2235.970215	409.260468
2235.224854	415.901794
2234.479492	422.540955
2233.733887	395.648407
2232.988037	405.641052
2232.242188	422.334167
2231.496338	432.319183
2230.750244	442.300903
2230.003906	412.076782
2229.257568	465.604248
2228.511230	468.877380
2227.764648	415.223602
2227.017822	431.895966
2226.270996	405.045593
2225.523926	404.979462
2224.776855	411.606140
2224.029785	394.809692
2223.282471	448.269989
2222.534912	438.162537
2221.787354	451.467804
2221.039795	401.239166
2220.291992	411.202972
2219.543945	394.422974
2218.795898	464.541016
2218.047852	464.465118
2217.299561	420.957153
2216.551025	424.228760
2215.802490	474.257019
2215.053955	447.465210
2214.305176	440.714569
2213.556152	460.671783
2212.807129	420.544617
2212.058105	413.801666
2211.308838	363.685547
2210.559326	477.050781
2209.809814	490.314697
2209.060303	403.526398
2208.310547	460.144928
2207.560547	430.065155
2206.810547	456.661194
2206.060303	449.921021
2205.310059	439.850830
2204.559814	476.427155
2203.809326	399.733643
2203.058594	462.949066
2202.307861	446.223206
2201.557129	439.491272
2200.806152	469.379791
2200.054932	479.288177
2199.303711	439.275604
2198.552246	485.785950
2197.800781	419.171356
2197.049316	445.712463
2196.297607	385.777496
2195.545654	478.817841
2194.793701	465.441162
2194.041504	442.096710
2193.289307	425.406891
2192.537109	481.827362
2191.784668	445.202057
2191.031982	491.635223
2190.279297	431.771057
2189.526367	444.983429
2188.773438	454.871277
2188.020508	494.632996
2187.267090	497.871155
2186.513916	434.736267
2185.760498	461.209473
2185.006836	481.039001
2184.253174	490.911133
2183.499268	464.299316
2182.745361	460.907379
2181.991211	460.831879
2181.237061	487.274719
2180.482666	450.738129
2179.728271	440.723145
2178.973877	559.924866
2178.218994	516.769043
2177.464355	404.073639
2176.709229	456.992004
2175.954346	440.362122
2175.198975	496.567627
2174.443848	509.725861
2173.688232	436.836243
2172.932861	463.235229
2172.177002	469.775848
2171.421387	476.314301
2170.665283	479.543396
2169.909424	529.064575
2169.153076	482.692230
2168.396729	505.752045
2167.640381	456.093689
2166.883789	492.368225
2166.127197	469.159851
2165.370361	485.599915
2164.613525	459.097382
2163.856445	518.463745
2163.099365	482.059174
2162.342041	478.678833
2161.584473	465.397522
2160.826904	508.223114
2160.069336	478.443237
2159.311523	484.962860
2158.553711	491.480316
2157.795654	451.823822
2157.037354	488.021515
2156.279053	497.832123
2155.520752	468.083160
2154.762207	566.880859
2154.003662	477.815308
2153.244873	467.852631
2152.485840	513.894531
2151.726807	517.103821
2150.967773	533.484436
2150.208252	500.471130
2149.448975	533.309265
2148.689453	503.598206
2147.929688	477.187897
2147.169922	523.175232
2146.410156	523.089294
2145.650146	444.059448
2144.889893	486.740753
2144.129639	486.660767
2143.369141	476.717682
2142.608643	430.618988
2141.847900	486.420868
2141.087158	489.627014
2140.326416	542.115295
2139.565186	476.326050
2138.804199	515.661377
2138.042725	499.156952
2137.281494	489.224731
2136.519775	482.578613
2135.758301	535.016174
2134.996338	518.519348
2134.234619	544.683899
2133.472412	498.664703
2132.710449	478.901794
2131.947998	495.221069
2131.185547	495.139618
2130.423096	518.007874
2129.660400	537.590637
2128.897705	517.837463
2128.134766	557.075256
2127.371826	517.667114
2126.608643	547.064453
2125.845215	481.468506
2125.081787	559.983459
2124.318359	504.229584
2123.554688	553.251770
2122.790771	484.424774
2122.026855	517.071045
2121.262939	520.257996
2120.498779	543.072998
2119.734375	559.338562
2118.969971	565.787354
2118.205322	552.614563
2117.440674	568.870422
2116.676025	516.475403
2115.911133	555.609924
2115.145996	506.502075
2114.380859	581.564636
2113.615479	542.268677
2112.850098	571.574646
2112.084473	519.230835
2111.318848	590.976746
2110.552979	525.588867
2109.787109	561.406128
2109.020996	567.840515
2108.254883	551.432373
2107.488525	499.143494
2106.722168	541.465149
2105.955566	583.772827
2105.188965	551.068970
2104.422119	547.717896
2103.655029	554.146973
2102.887939	560.573975
2102.120850	580.033203
2101.353516	592.969910
2100.585938	498.403503
2099.818359	534.148315
2099.050781	566.624878
2098.282959	553.507751
2097.514893	559.927246
2096.746826	579.364014
2095.978760	556.488220
2095.210449	572.665344
2094.441895	569.317627
2093.673340	556.212891
2092.904541	520.347290
2092.135742	604.803894
2091.366699	614.457397
2090.597656	546.094238
2089.828369	555.754211
2089.059082	493.922211
2088.289551	510.085449
2087.520020	532.740173
2086.750244	558.635254
2085.980469	561.790405
2085.210449	551.957214
2084.440186	538.881042
2083.670166	571.249390
2082.899658	528.967529
2082.129150	551.592834
2081.358643	603.407776
2080.587891	548.167053
2079.816895	583.750122
2079.045898	551.228516
2078.274902	538.169556
2077.503662	567.253723
2076.732178	560.678162
2075.960693	528.181763
2075.188965	628.529663
2074.417236	511.810699
2073.645264	621.844421
2072.873291	514.879822
2072.101074	560.122559
2071.328857	640.959229
2070.556396	576.120605
2069.783936	621.330750
2069.011230	582.401306
2068.238525	566.129883
2067.465576	575.739807
2066.692627	569.176697
2065.919434	620.817383
2065.145996	575.454285
2064.372559	601.217957
2063.599121	572.032166
2062.825439	594.556580
2062.051514	597.689026
2061.277588	600.820374
2060.503662	616.869385
2059.729248	600.621643
2058.955078	632.808411
2058.180664	597.194824
2057.406006	606.778687
2056.631348	587.316223
2055.856445	542.048340
2055.081543	616.155396
2054.306396	612.828003
2053.531250	574.028076
2052.755859	586.830444
2051.980225	567.390442
2051.204590	651.101746
2050.428955	599.430054
2049.653076	625.108521
2048.877197	570.236511
2048.101074	634.564941
2047.324707	657.004150
2046.548340	560.293091
2045.771851	573.078491
2044.995239	614.830750
2044.218506	579.325684
2043.441528	611.409119
2042.664551	569.481567
2041.887329	614.423523
2041.110107	562.860229
2040.332642	572.414368
2039.555176	598.041809
2038.777466	610.801697
2037.999634	552.844666
2037.221802	642.736084
2036.443726	594.432373
2035.665527	600.759094
2034.887207	610.295776
2034.108765	571.656006
2033.330200	658.258728
2032.551514	677.412537
2031.772705	648.410706
2030.993774	622.627808
2030.214600	580.809021
2029.435425	577.504333
2028.656128	603.071228
2027.876587	606.178467
2027.097046	634.938843
2026.317261	622.008606
2025.537476	641.139648
2024.757446	641.033264
2023.977295	647.336243
2023.197021	644.024719
2022.416626	611.882202
2021.636230	614.983704
2020.855591	560.439026
2020.074707	601.971741
2019.293823	630.684875
2018.512817	652.986633
2017.731689	649.677856
2016.950439	678.368713
2016.168945	630.266296
2015.387451	604.571350
2014.605713	617.264038
2013.823975	645.941101
2013.041992	620.256287
2012.260010	677.693298
2011.477783	642.423340
2010.695435	651.903442
2009.912964	658.185364
2009.130371	626.130615
2008.347656	641.996704
2007.564819	667.437927
2006.781860	708.835449
2005.998779	651.254089
2005.215576	673.489136
2004.432129	625.506836
2003.648682	647.738770
2002.864990	628.489319
2002.081299	695.370056
2001.297363	692.065308
2000.513428	609.043823
1999.729248	672.706177
1998.944946	640.717896
1998.160522	697.979553
1997.375977	662.811035
1996.591309	653.142700
1995.806519	694.446045
1995.021606	662.480530
1994.236572	656.001465
1993.451416	655.892395
1992.666016	668.516968
1991.880615	665.222900
1991.094971	661.929932
1990.309326	645.910706
1989.523438	642.622009
1988.737549	655.238159
1987.951416	709.193237
1987.165161	629.582520
1986.378784	651.732056
1985.592285	657.980896
1984.805664	645.158936
1984.018921	645.051575
1983.232056	648.121338
1982.444946	638.483826
1981.657837	660.609619
1980.870605	695.429932
1980.083130	714.363892
1979.295654	679.326355
1978.507935	656.996033
1977.720093	714.007202
1976.932129	698.024170
1976.144165	663.012573
1975.355957	675.589294
1974.567627	704.018066
1973.779053	694.388611
1972.990479	703.783569
1972.201782	633.933655
1971.412964	665.519470
1970.623901	700.263367
1969.834839	719.155212
1969.045532	690.527405
1968.256226	706.247498
1967.466675	706.129822
1966.677002	696.514221
1965.887207	709.059998
1965.097290	708.941833
1964.307251	689.837341
1963.517090	677.066895
1962.726807	702.260742
1961.936401	683.166809
1961.145874	695.702087
1960.355103	752.497681
1959.564331	676.502747
1958.773315	685.872070
1957.982178	704.718750
1957.191040	682.483704
1956.399658	666.574341
1955.608154	653.828796
1954.816528	716.881042
1954.024780	719.919067
1953.232910	786.096252
1952.440918	681.801025
1951.648682	710.090942
1950.856445	728.905090
1950.063965	754.022766
1949.271484	722.353149
1948.478760	687.540222
1947.685913	709.498779
1946.893066	747.213989
1946.099976	753.393799
1945.306763	705.991821
1944.513428	702.722778
1943.719971	753.016663
1942.926270	740.290222
1942.132568	727.568054
1941.338745	705.402771
1940.544678	765.108276
1939.750610	752.388245
1938.956299	670.426514
1938.161865	698.637695
1937.367310	767.743835
1936.572632	710.988220
1935.777832	789.505493
1934.982910	817.677856
1934.187866	735.787109
1933.392700	757.671265
1932.597290	744.971313
1931.801880	716.561523
1931.006226	732.153259
1930.210571	754.023254
1929.414673	731.908569
1928.618652	769.474792
1927.822510	715.963013
1927.026245	797.474609
1926.229858	709.445435
1925.433350	753.267395
1924.636719	765.693848
1923.839844	693.401855
1923.042969	746.615601
1922.245850	752.763794
1921.448730	765.181885
1920.651367	780.731262
1919.853882	799.410339
1919.056274	793.007813
1918.258545	780.339600
1917.460693	802.142700
1916.662720	761.281494
1915.864624	754.889526
1915.066284	773.554016
1914.267944	795.343506
1913.469360	773.295166
1912.670776	804.468018
1911.871948	835.630432
1911.072998	794.811279
1910.273926	775.906311
1909.474731	716.341980
1908.675415	750.625793
1907.875977	806.787598
1907.076294	772.260376
1906.276611	790.887329
1905.476807	743.872253
1904.676758	781.247559
1903.876587	740.498657
1903.076294	843.464844
1902.275879	821.459656
1901.475342	840.059448
1900.674683	764.981750
1899.873901	814.803223
1899.072998	758.482849
1898.271851	827.013489
1897.470703	861.198059
1896.669312	795.538818
1895.867920	842.194092
1895.066284	776.559998
1894.264526	792.020813
1893.462646	791.888062
1892.660645	826.044006
1891.858521	760.456421
1891.056152	838.231506
1890.253784	834.975403
1889.451172	788.109619
1888.648560	775.519348
1887.845703	850.125610
1887.042725	821.961670
1886.239624	775.129333
1885.436401	799.898926
1884.633057	793.540955
1883.829590	840.078918
1883.025879	799.496521
1882.222168	867.790344
1881.418213	824.107056
1880.614258	808.422241
1879.810059	798.960266
1879.005737	839.233765
1878.201294	829.769714
1877.396729	876.238892
1876.592041	851.238220
1875.787231	807.608765
1874.982178	863.375183
1874.177124	891.176575
1873.371826	822.725281
1872.566406	838.107727
1871.760986	806.931213
1870.955322	825.414124
1870.149536	856.300903
1869.343506	853.055115
1868.537476	840.505920
1867.731323	855.869690
1866.924927	846.424561
1866.118530	864.882019
1865.311890	889.532104
1864.505127	929.668335
1863.698242	790.085327
1862.891235	830.224731
1862.084106	898.226563
1861.276855	823.752136
1860.469482	935.080261
1859.661865	857.528870
1858.854126	860.480042
1858.046387	835.577576
1857.238403	866.379272
1856.430298	773.422913
1855.622070	847.529053
1854.813721	770.070313
1854.005249	834.875610
1853.196533	788.361084
1852.387817	902.598938
1851.578857	843.726318
1850.769775	862.124756
1849.960693	852.711182
1849.151367	898.903015
1848.341919	861.689941
1847.532227	790.521606
1846.722534	845.962830
1845.912720	858.168274
1845.102661	867.283142
1844.292603	894.910339
1843.482300	900.930542
1842.671875	906.948669
1841.861328	900.627380
1841.050659	829.547974
1840.239868	878.741211
1839.428833	853.931030
1838.617798	921.597168
1837.806519	841.316650
1836.995117	964.424133
1836.183716	871.840515
1835.372070	834.731506
1834.560303	893.104736
1833.748291	899.112671
1832.936279	932.826233
1832.124146	849.560059
1831.311768	947.900085
1830.499390	923.123840
1829.686768	907.585571
1828.874023	858.216003
1828.061157	919.581970
1827.248169	916.352051
1826.434937	962.315002
1825.621704	952.930969
1824.808228	937.403137
1823.994751	934.172302
1823.181030	973.956299
1822.367188	906.210388
1821.553223	985.913574
1820.739136	890.550659
1819.924927	875.048828
1819.110474	973.135864
1818.296021	963.763855
1817.481323	994.289368
1816.666626	948.097595
1815.851685	963.276550
1815.036621	932.441650
1814.221436	916.950806
1813.406006	929.061035
1812.590576	907.444519
1811.774902	916.487000
1810.959229	901.009155
1810.143311	965.204102
1809.327271	912.959717
1808.511108	928.121216
1807.694824	897.338745
1806.878418	955.366699
1806.061768	921.528381
1805.245117	970.349548
1804.428223	933.459534
1803.611206	872.101868
1802.794067	936.203979
1801.976807	908.515198
1801.159424	938.946411
1800.341919	954.077637
1799.524170	911.112610
1798.706421	953.755493
1797.888428	907.748596
1797.070313	925.930603
1796.252075	996.047546
1795.433716	980.605103
1794.615234	959.059204
1793.796509	943.628174
1792.977783	964.841858
1792.158813	924.992737
1791.339844	933.993286
1790.520630	952.145996
1789.701294	988.599976
1788.881714	945.722900
1788.062134	1027.918579
1787.242432	988.098938
1786.422485	926.948486
1785.602417	945.083801
1784.782349	929.683350
1783.962036	981.335876
1783.141479	932.416199
1782.320923	971.864380
1781.500244	956.469666
1780.679321	968.490234
1779.858398	943.966064
1779.037231	1019.919861
1778.215942	958.867004
1777.394531	970.878845
1776.572998	964.628662
1775.751221	991.847839
1774.929443	958.218506
1774.107422	979.346558
1773.285278	951.812500
1772.463013	942.530212
1771.640625	969.729919
1770.818115	893.581055
1769.995483	990.673889
1769.172607	975.314453
1768.349731	959.960144
1767.526611	981.059082
1766.703369	1017.334839
1765.880005	965.545471
1765.056519	977.525208
1764.232910	931.830566
1763.409058	931.672791
1762.585083	1031.645386
1761.761108	940.458557
1760.936890	994.897339
1760.112549	961.369080
1759.288086	1000.624817
1758.463379	1067.152344
1757.638672	1018.472961
1756.813721	1003.147156
1755.988647	987.826538
1755.163574	1069.459229
1754.338257	1048.074219
1753.512695	972.181519
1752.687134	993.213440
1751.861328	986.989990
1751.035522	989.849854
1750.209473	980.602417
1749.383301	998.592468
1748.557007	1080.112427
1747.730591	1007.329041
1746.903931	1058.574829
1746.077271	988.843628
1745.250366	988.676025
1744.423340	1070.128296
1743.596313	991.363220
1742.768921	1036.524170
1741.941528	978.941345
1741.114014	1018.047180
1740.286255	981.629761
1739.458374	1014.682007
1738.630493	996.393677
1737.802368	1014.337830
1736.973999	1038.312622
1736.145630	1004.940186
1735.317139	1089.254883
1734.488403	1040.801025
1733.659546	1049.673340
1732.830566	1034.416260
1732.001465	1052.332397
1731.172241	994.873169
1730.342896	1067.046509
1729.513306	1012.617981
1728.683594	1045.591675
1727.853882	1003.236023
1727.023926	1003.065735
1726.193726	1081.199585
1725.363525	978.635620
1724.533203	1017.608215
1723.702637	1035.496460
1722.871948	1059.397827
1722.041138	1032.135620
1721.210205	1001.873962
1720.379150	1052.841797
1719.547974	1079.731445
1718.716553	1010.384827
1717.885010	1076.358032
1717.053467	1151.327148
1716.221558	1009.869934
1715.389648	1057.779175
1714.557617	1048.585815
1713.725342	1045.403564
1712.893066	1093.282227
1712.060547	1123.126587
1711.227905	1071.893066
1710.395142	1059.703003
1709.562256	1026.506470
1708.729126	1032.333984
1707.895874	1095.168091
1707.062622	1085.982056
1706.229126	1115.791748
1705.395508	1085.612671
1704.561646	1172.382324
1703.727783	1133.210083
1702.893677	1076.066650
1702.059570	1027.933472
1701.225220	1117.650024
1700.390747	1000.620850
1699.556030	1039.390381
1698.721313	1030.228882
1697.886353	1059.997070
1697.051392	1098.736450
1696.216187	1074.602905
1695.380859	1023.542236
1694.545410	1071.244873
1693.709717	1050.119995
1692.874023	1118.740845
1692.038086	1100.605713
1691.202026	1073.505981
1690.365845	1046.415405
1689.529541	1082.108154
1688.692993	1123.766235
1687.856445	1033.927979
1687.019653	1072.592285
1686.182739	1060.460815
1685.345703	1045.346680
1684.508545	1072.044312
1683.671143	1131.575439
1682.833740	1107.501221
1681.996094	1041.649902
1681.158325	1056.393188
1680.320435	1047.262207
1679.482422	1088.847778
1678.644287	1088.662231
1677.805908	1100.405273
1676.967407	1115.125854
1676.128784	1061.275757
1675.290039	1135.609985
1674.451172	1060.913940
1673.612183	1090.528931
1672.772949	1093.322144
1671.933594	1140.792847
1671.094116	1054.234497
1670.254517	1140.403931
1669.414795	1128.301270
1668.574829	1089.413818
1667.734863	1124.940308
1666.894653	1133.675049
1666.054321	1163.231812
1665.213867	1127.339355
1664.373169	1159.861084
1663.532471	1100.193237
1662.691528	1088.113525
1661.850464	1117.652710
1661.009277	1081.798340
1660.167969	1081.613770
1659.326538	1111.138672
1658.484863	1063.421875
1657.643066	1092.939819
1656.801147	1116.508667
1655.959106	1146.007446
1655.116943	1101.285400
1654.274658	1110.001099
1653.432129	1154.322754
1652.589478	1154.125732
1651.746704	1130.197388
1650.903809	1115.174927
1650.060791	1162.430664
1649.217529	1153.337524
1648.374146	1135.354248
1647.530640	1182.582153
1646.687012	1108.296143
1645.843262	1253.286621
1644.999390	1107.917480
1644.155273	1152.155762
1643.311035	1181.572266
1642.466675	1133.997070
1641.622192	1193.009766
1640.777588	1201.685303
1639.932739	1177.805420
1639.087769	1142.098511
1638.242798	1135.986694
1637.397461	1162.412598
1636.552124	1191.786743
1635.706665	1126.533813
1634.860962	1212.073120
1634.015137	1173.440918
1633.169189	1123.000732
1632.323120	1173.039551
1631.476929	1193.518677
1630.630493	1172.638306
1629.783936	1086.793701
1628.937256	1116.135132
1628.090454	1186.797729
1627.243530	1068.525635
1626.396484	1103.757446
1625.549194	1150.780151
1624.701782	1100.429565
1623.854248	1106.140625
1623.006592	1123.646606
1622.158691	1114.608154
1621.310791	1123.261963
1620.462646	1146.651245
1619.614380	1164.138062
1618.765991	1140.365234
1617.917358	1107.762085
1617.068726	1134.083496
1616.219849	1125.053711
1615.370850	1145.473755
1614.521729	1186.495728
1613.672363	1156.856079
1612.822998	1150.771606
1611.973389	1153.517090
1611.123657	1065.055298
1610.273804	1211.954712
1609.423828	1205.864746
1608.573608	1202.717529
1607.723389	1199.571411
1606.872925	1161.150757
1606.022339	1249.125244
1605.171509	1181.323120
1604.320679	1204.625488
1603.469604	1216.169434
1602.618408	1233.583618
1601.767090	1212.815918
1600.915649	1194.991455
1600.064087	1244.691650
1599.212280	1191.646606
1598.360352	1159.161865
1597.508301	1188.303833
1596.656128	1199.834473
1595.803833	1240.691772
1594.951294	1293.265259
1594.098633	1213.877563
1593.245850	1172.627319
1592.392944	1272.082397
1591.539795	1257.211304
1590.686646	1192.534302
1589.833252	1165.963745
1588.979736	1227.273804
1588.126099	1224.134644
1587.272217	1194.644043
1586.418335	1235.424683
1585.564209	1188.379883
1584.709961	1232.073975
1583.855591	1296.235352
1583.000977	1219.948853
1582.146362	1266.540039
1581.291504	1210.756470
1580.436523	1169.612061
1579.581421	1204.493652
1578.726074	1142.903198
1577.870605	1221.615112
1577.015137	1244.781494
1576.159424	1197.823364
1575.303467	1159.644287
1574.447510	1255.822144
1573.591309	1211.806152
1572.734985	1199.919922
1571.878540	1252.255981
1571.021973	1149.892944
1570.165161	1126.351318
1569.308350	1237.022949
1568.451294	1254.312378
1567.594116	1184.100708
1566.736694	1250.965210
1565.879272	1300.313721
1565.021606	1235.960205
1564.163818	1259.063721
1563.305908	1255.933228
1562.447876	1299.419678
1561.589600	1258.414307
1560.731201	1310.622803
1559.872681	1220.125610
1559.014038	1225.738770
1558.155273	1210.972900
1557.296265	1254.421997
1556.437134	1178.546509
1555.577881	1268.537964
1554.718506	1181.049927
1553.859009	1314.637207
1552.999268	1200.999512
1552.139404	1261.850098
1551.279419	1186.051270
1550.419312	1290.480713
1549.558960	1293.164551
1548.698608	1255.170654
1547.838013	1269.479492
1546.977173	1164.699341
1546.116333	1330.026123
1545.255249	1271.727417
1544.394165	1280.217407
1543.532837	1268.386963
1542.671265	1279.776489
1541.809692	1201.215942
1540.947876	1238.721924
1540.085938	1302.319336
1539.223877	1246.995117
1538.361694	1200.388550
1537.499268	1321.939331
1536.636841	1234.756836
1535.774170	1280.911987
1534.911377	1222.741333
1534.048340	1248.603638
1533.185303	1233.906006
1532.322021	1297.405151
1531.458618	1294.286011
1530.594971	1259.322998
1529.731323	1279.367432
1528.867432	1273.358887
1528.003418	1293.393799
1527.139282	1241.096802
1526.275024	1266.915405
1525.410522	1197.288818
1524.545898	1266.478394
1523.681152	1260.478027
1522.816284	1263.151123
1521.951172	1225.363159
1521.086060	1277.162964
1520.220703	1271.164551
1519.355225	1302.718994
1518.489502	1282.278076
1517.623779	1310.932007
1516.757813	1333.801880
1515.891724	1267.181763
1515.025513	1281.393188
1514.159058	1321.569458
1513.292480	1289.606079
1512.425781	1300.921509
1511.558960	1268.972656
1510.692017	1286.054810
1509.824829	1363.674683
1508.957520	1216.429932
1508.090088	1291.152832
1507.222534	1299.574463
1506.354736	1279.182739
1505.486938	1316.408936
1504.618896	1301.781372
1503.750610	1238.206421
1502.882324	1249.508667
1502.013794	1295.349731
1501.145142	1364.199341
1500.276367	1297.779785
1499.407471	1349.342651
1498.538330	1271.442261
1497.669067	1245.337891
1496.799683	1394.652466
1495.930176	1319.659424
1495.060547	1253.316040
1494.190674	1270.343872
1493.320679	1370.699707
1492.450562	1333.112671
1491.580200	1235.214111
1490.709717	1338.395874
1489.839233	1300.833740
1488.968384	1289.124390
1488.097534	1375.019531
1487.226440	1371.911621
1486.355347	1363.065552
1485.483887	1377.175293
1484.612427	1331.039185
1483.740845	1333.677124
1482.869019	1353.519775
1481.997070	1341.817017
1481.124878	1318.651733
1480.252686	1404.407715
1479.380249	1358.314453
1478.507690	1340.888550
1477.635010	1409.408081
1476.762207	1397.707520
1475.889160	1420.374756
1475.015991	1434.444702
1474.142700	1462.823120
1473.269165	1451.121094
1472.395630	1479.486694
1471.521851	1502.119873
1470.647949	1504.720459
1469.773804	1555.943359
1468.899658	1624.306519
1468.025269	1595.433228
1467.150757	1606.591675
1466.276001	1654.902954
1465.401245	1634.612183
1464.526245	1817.191040
1463.651123	1694.037109
1462.775879	1762.293091
1461.900391	1790.545044
1461.024780	1707.432739
1460.149048	1778.505493
1459.273193	1815.302490
1458.397217	1795.011597
1457.520996	1729.075439
1456.644653	1694.542480
1455.768188	1708.510132
1454.891479	1759.545898
1454.014648	1756.389526
1453.137695	1827.354614
1452.260620	1687.373413
1451.383423	1704.179565
1450.505981	1743.774170
1449.628418	1754.867065
1448.750732	1743.169312
1447.872803	1714.388794
1446.994873	1802.358521
1446.116699	1685.325562
1445.238403	1793.194092
1444.359863	1861.183228
1443.481201	1843.788208
1442.602417	1857.692505
1441.723511	1976.833496
1440.844482	2110.152344
1439.965210	2135.376465
1439.085815	2265.778320
1438.206299	2214.221924
1437.326538	2250.782227
1436.446777	2150.942383
1435.566772	2093.750732
1434.686646	1999.653320
1433.806274	1968.067017
1432.925781	1919.454834
1432.045166	1816.919800
1431.164429	1677.520386
1430.283569	1702.770630
1429.402466	1665.587769
1428.521240	1676.646362
1427.639893	1662.172729
1426.758301	1568.296509
1425.876709	1616.227295
1424.994873	1550.741577
1424.112793	1601.493164
1423.230713	1706.073120
1422.348389	1623.604614
1421.465942	1657.318726
1420.583374	1702.351074
1419.700562	1772.856079
1418.817627	1829.178833
1417.934570	2041.189819
1417.051392	2275.771484
1416.167969	2504.611328
1415.284546	2699.416504
1414.400757	2696.118164
1413.516968	2432.590088
1412.633057	2200.262695
1411.748901	1993.464355
1410.864624	1741.504150
1409.980103	1647.922607
1409.095459	1599.591553
1408.210815	1415.646484
1407.325806	1392.798950
1406.440796	1415.153931
1405.555542	1468.566772
1404.670166	1459.840088
1403.784668	1400.299194
1402.899048	1366.183105
1402.013184	1433.678101
1401.127197	1345.955566
1400.241089	1306.224121
1399.354736	1331.383301
1398.468262	1398.837036
1397.581665	1330.919678
1396.694946	1319.410767
1395.807983	1293.812134
1394.920898	1335.860840
1394.033691	1290.543701
1393.146362	1377.654907
1392.258789	1411.216431
1391.371094	1399.705444
1390.483276	1317.802734
1389.595337	1297.865845
1388.707153	1368.010620
1387.818848	1398.729980
1386.930420	1378.789307
1386.041748	1299.774780
1385.152954	1347.367065
1384.264038	1349.944580
1383.375000	1349.709229
1382.485718	1374.776611
1381.596313	1323.940430
1380.706787	1304.036621
1379.817139	1376.867432
1378.927246	1342.914063
1378.037231	1438.184204
1377.147095	1364.913330
1376.256714	1401.178955
1375.366333	1313.902588
1374.475586	1403.497192
1373.584839	1383.606812
1372.693970	1377.753296
1371.802856	1419.595825
1370.911499	1394.102783
1370.020142	1298.504883
1369.128540	1407.636475
1368.236816	1452.247925
1367.344971	1491.237549
1366.453003	1454.543579
1365.560791	1459.893921
1364.668457	1431.622925
1363.775879	1383.753906
1362.883301	1386.312866
1361.990479	1416.872437
1361.097534	1408.226074
1360.204346	1391.185059
1359.311035	1376.948730
1358.417603	1421.479248
1357.524048	1396.051636
1356.630249	1362.241333
1355.736450	1378.783691
1354.842285	1339.395508
1353.948120	1403.463623
1353.053711	1408.808838
1352.159180	1372.230713
1351.264526	1341.253784
1350.369751	1382.926270
1349.474731	1315.645264
1348.579590	1441.091919
1347.684204	1415.709106
1346.788818	1395.918823
1345.893188	1431.962280
1344.997314	1426.130249
1344.101440	1367.282959
1343.205322	1375.413574
1342.309082	1419.803345
1341.412720	1338.676636
1340.516113	1491.805786
1339.619385	1380.027466
1338.722534	1421.597778
1337.825439	1435.283813
1336.928223	1329.146851
1336.030884	1345.630249
1335.133423	1350.965698
1334.235718	1278.319092
1333.337891	1347.708496
1332.439941	1447.697876
1331.541870	1350.020264
1330.643555	1374.831543
1329.745117	1474.763550
1328.846436	1393.824829
1327.947754	1426.959961
1327.048828	1379.431274
1326.149780	1365.286621
1325.250488	1437.331177
1324.351074	1381.486450
1323.451538	1331.219482
1322.551880	1428.240112
1321.651978	1386.317017
1320.751953	1449.961426
1319.851807	1399.717529
1318.951416	1357.821289
1318.050903	1374.240967
1317.150269	1504.460693
1316.249512	1518.073486
1315.348511	1476.185669
1314.447388	1481.475586
1313.546021	1461.799194
1312.644653	1450.449707
1311.743042	1422.467041
1310.841309	1533.111938
1309.939331	1516.211914
1309.037231	1485.460938
1308.135010	1468.575073
1307.232666	1498.792114
1306.330078	1509.608887
1305.427368	1484.419189
1304.524536	1547.844849
1303.621460	1514.351685
1302.718262	1566.677734
1301.814941	1616.217896
1300.911499	1596.565308
1300.007813	1643.316040
1299.104004	1706.646729
1298.199951	1844.625000
1297.295898	1988.084839
1296.391602	2280.781982
1295.487061	2894.011475
1294.582520	3531.898438
1293.677734	3749.565674
1292.772827	3608.012695
1291.867676	3054.947510
1290.962402	2455.127930
1290.057007	1999.100708
1289.151489	1764.089844
1288.245728	1667.172363
1287.339844	1534.412354
1286.433838	1600.364868
1285.527588	1509.044556
1284.621216	1461.888672
1283.714722	1445.085205
1282.808105	1453.103271
1281.901245	1430.793335
1280.994263	1444.323608
1280.087036	1289.741821
1279.179810	1377.687134
1278.272217	1380.199951
1277.364624	1349.658936
1276.456787	1376.960938
1275.548828	1360.198242
1274.640747	1395.747559
1273.732544	1318.432983
1272.824097	1453.048584
1271.915405	1417.023560
1271.006714	1392.015259
1270.097778	1402.772583
1269.188721	1421.776245
1268.279541	1366.534912
1267.370117	1374.541748
1266.460571	1357.808350
1265.550781	1396.043213
1264.640991	1390.302368
1263.730957	1368.080566
1262.820679	1370.586548
1261.910400	1397.807129
1260.999878	1381.087036
1260.089233	1372.608276
1259.178345	1344.919434
1258.267334	1369.380981
1257.356201	1336.214722
1256.444824	1294.830322
1255.533447	1313.801880
1254.621704	1310.828369
1253.709961	1310.597534
1252.797974	1261.022461
1251.885864	1299.172607
1250.973633	1279.761108
1250.061157	1304.194824
1249.148560	1345.056519
1248.235840	1358.514282
1247.322876	1330.890381
1246.409790	1267.682495
1245.496582	1300.309082
1244.583130	1368.505249
1243.669556	1291.641357
1242.755859	1299.621826
1241.841919	1318.541748
1240.927856	1331.984863
1240.013672	1356.361450
1239.099365	1358.856567
1238.184814	1342.215210
1237.270142	1279.116089
1236.355225	1311.682617
1235.440186	1300.522583
1234.525024	1333.073730
1233.609741	1324.645020
1232.694214	1318.949951
1231.778564	1280.493652
1230.862671	1318.484741
1229.946777	1277.312744
1229.030640	1266.172119
1228.114258	1315.058838
1227.197876	1323.010376
1226.281128	1366.415039
1225.364380	1281.640137
1224.447388	1286.866821
1223.530273	1292.091675
1222.613037	1321.843506
1221.695557	1327.060181
1220.777954	1332.274902
1219.860229	1244.871582
1218.942261	1263.716431
1218.024170	1353.353882
1217.105957	1317.721558
1216.187500	1314.766846
1215.268921	1303.648315
1214.350220	1311.581421
1213.431274	1246.054321
1212.512207	1251.274658
1211.593018	1316.325928
1210.673706	1348.723877
1209.754150	1302.267334
1208.834351	1239.517822
1207.914551	1334.420410
1206.994507	1312.446411
1206.074219	1309.497681
1205.153931	1295.684692
1204.233398	1271.013184
1203.312744	1333.241821
1202.391846	1316.716797
1201.470825	1305.626465
1200.549683	1275.542603
1199.628296	1310.591797
1198.706787	1304.934204
1197.785156	1323.690796
1196.863281	1353.288696
1195.941284	1304.242065
1195.019165	1274.189941
1194.096802	1279.385742
1193.174438	1401.113159
1192.251709	1365.640503
1191.328979	1319.343750
1190.406006	1343.488159
1189.482788	1313.460693
1188.559570	1310.520630
1187.636108	1326.531982
1186.712402	1280.282837
1185.788696	1331.474976
1184.864746	1269.006592
1183.940552	1317.477173
1183.016357	1319.948853
1182.091919	1322.419556
1181.167236	1316.777710
1180.242554	1367.908691
1179.317505	1343.340454
1178.392456	1332.292847
1177.467163	1267.210327
1176.541748	1304.806396
1175.616211	1320.781250
1174.690430	1377.257935
1173.764526	1358.113770
1172.838501	1287.684937
1171.912231	1368.428955
1170.985840	1338.501953
1170.059204	1443.491211
1169.132446	1391.980347
1168.205566	1461.859863
1167.278564	1402.273804
1166.351318	1361.582153
1165.423828	1334.383667
1164.496338	1404.223511
1163.568604	1355.468750
1162.640747	1325.591187
1161.712646	1363.069580
1160.784424	1365.521240
1159.856079	1354.507690
1158.927490	1330.036011
1157.998779	1265.194458
1157.069946	1297.267212
1156.140869	1332.019409
1155.211670	1302.187988
1154.282349	1339.616943
1153.352783	1296.346924
1152.423096	1384.855225
1151.493164	1387.298096
1150.563232	1333.290283
1149.632935	1330.366089
1148.702637	1346.252686
1147.772095	1362.133667
1146.841431	1283.992798
1145.910522	1358.964478
1144.979492	1275.481323
1144.048340	1358.482056
1143.116943	1409.241943
1142.185425	1425.094482
1141.253784	1459.724609
1140.321899	1274.349365
1139.389893	1453.841431
1138.457764	1488.447754
1137.525391	1469.413452
1136.592896	1520.090210
1135.660278	1664.564941
1134.727417	1610.669678
1133.794434	1765.794800
1132.861206	1974.445435
1131.927856	2276.771240
1130.994385	2530.784180
1130.060669	3079.242920
1129.126831	3523.098633
1128.192871	3741.957764
1127.258667	3505.789063
1126.324341	3213.514648
1125.389893	2667.197754
1124.455200	2305.632568
1123.520386	1981.635742
1122.585327	1885.026611
1121.650146	1841.918335
1120.714844	1681.219971
1119.779297	1640.835449
1118.843628	1555.042847
1117.907837	1490.652222
1116.971802	1503.741699
1116.035645	1361.939331
1115.099365	1463.156860
1114.162842	1401.497559
1113.226196	1513.348022
1112.289307	1384.987305
1111.352417	1464.783691
1110.415161	1379.159180
1109.477905	1402.917969
1108.540405	1432.001587
1107.602661	1367.758057
1106.664917	1383.508789
1105.726807	1420.575928
1104.788696	1393.675293
1103.850342	1401.419922
1102.911865	1387.851318
1101.973145	1347.653931
1101.034302	1400.671387
1100.095337	1349.836304
1099.156128	1360.243530
1098.216797	1365.324097
1097.277344	1381.046631
1096.337646	1351.535034
1095.397827	1385.874634
1094.457764	1462.754761
1093.517700	1385.380737
1092.577271	1374.499390
1091.636841	1358.305664
1090.696167	1472.342773
1089.755249	1392.364868
1088.814209	1501.041748
1087.873047	1405.149536
1086.931763	1396.931763
1085.990234	1407.303833
1085.048584	1407.052856
1084.106689	1454.580078
1083.164673	1433.089722
1082.222412	1382.419556
1081.280151	1456.454834
1080.337524	1485.371948
1079.394897	1453.283203
1078.452026	1460.978516
1077.509033	1444.811646
1076.565796	1436.602173
1075.622437	1478.747070
1074.678955	1393.695679
1073.735229	1343.113281
1072.791382	1509.739502
1071.847290	1422.079590
1070.903076	1453.598389
1069.958740	1437.455322
1069.014160	1474.253540
1068.069458	1511.038574
1067.124512	1574.268677
1066.179565	1671.865723
1065.234253	1769.427856
1064.288940	2134.040771
1063.343384	2337.242920
1062.397583	2598.528809
1061.451660	2547.847656
1060.505615	2481.329346
1059.559448	2385.772217
1058.613037	2218.926514
1057.666382	1922.725952
1056.719727	1732.256592
1055.772827	1647.461792
1054.825684	1546.859131
1053.878418	1480.602051
1052.931030	1430.201172
1051.983398	1411.477661
1051.035645	1390.122803
1050.087769	1410.972900
1049.139648	1365.894043
1048.191406	1341.922241
1047.242920	1323.230835
1046.294312	1330.900513
1045.345581	1430.791504
1044.396606	1346.231445
1043.447510	1377.598999
1042.498291	1382.619751
1041.548828	1353.408325
1040.599121	1345.268311
1039.649414	1392.406250
1038.699341	1321.101807
1037.749268	1336.652588
1036.798950	1428.489136
1035.848511	1346.695313
1034.897827	1354.343628
1033.947021	1346.213135
1032.996094	1330.199097
1032.044922	1314.190552
1031.093506	1356.001831
1030.142090	1355.759033
1029.190430	1287.215088
1028.238525	1329.008545
1027.286499	1323.518433
1026.334351	1378.418091
1025.381958	1317.794189
1024.429443	1377.924316
1023.476807	1322.570313
1022.523926	1359.064819
1021.570923	1332.589233
1020.617737	1369.068726
1019.664368	1397.668335
1018.710815	1250.597290
1017.757080	1315.906250
1016.803223	1404.779541
1015.849121	1396.666626
1014.894897	1330.918213
1013.940491	1349.015747
1012.985962	1259.728638
1012.031189	1311.872925
1011.076294	1316.873779
1010.121216	1300.932129
1009.165955	1298.081787
1008.210510	1363.264771
1007.254944	1352.555542
1006.299133	1341.850098
1005.343201	1294.535400
1004.387085	1346.598267
1003.430786	1236.556641
1002.474365	1348.728882
1001.517700	1322.353271
1000.560913	1316.890259
999.603943	1371.514526
998.646790	1371.268311
997.689514	1331.850098
996.731995	1323.777954
995.774353	1357.477295
994.816528	1323.302734
993.858521	1385.695435
992.900330	1291.518066
991.942017	1252.156250
990.983459	1332.785278
990.024780	1366.446289
989.065918	1366.200806
988.106873	1313.819702
987.147705	1373.528931
986.188293	1321.165161
985.228760	1315.717041
984.269043	1367.578857
983.309143	1375.146484
982.349060	1286.364136
981.388794	1353.824219
980.428406	1332.756592
979.467834	1342.927246
978.507019	1379.115356
977.546082	1295.614990
976.585022	1321.393799
975.623718	1360.166748
974.662292	1396.325439
973.700623	1336.279663
972.738831	1343.837280
971.776855	1294.217773
970.814758	1299.181763
969.852417	1358.699707
968.889954	1340.273193
967.927246	1311.465576
966.964417	1308.633057
966.001404	1342.145996
965.038208	1315.948853
964.074890	1359.828613
963.111328	1209.095581
962.147644	1325.615112
961.183777	1315.001709
960.219727	1371.816040
959.255493	1291.193604
958.291077	1363.545288
957.326538	1321.830566
956.361755	1329.366577
955.396851	1321.354614
954.431763	1328.887817
953.466492	1326.058594
952.501038	1343.946167
951.535461	1268.622437
950.569641	1346.050659
949.603699	1366.512817
948.637573	1345.565674
947.671265	1366.020508
946.704773	1350.254150
945.738098	1425.011475
944.771240	1331.667236
943.804260	1341.768433
942.837097	1320.847900
941.869751	1346.453491
940.902222	1465.070068
939.934509	1314.966919
938.966614	1353.474243
937.998535	1358.395264
937.030334	1340.076050
936.061951	1394.047363
935.093323	1466.066895
934.124573	1406.447754
933.155640	1346.850098
932.186584	1336.288330
931.217285	1294.779419
930.247864	1361.593994
929.278198	1418.071167
928.308411	1368.836182
927.338440	1396.940430
926.368286	1365.765259
925.397949	1380.977539
924.427429	1365.272339
923.456787	1383.054565
922.485901	1341.604004
921.514893	1403.151978
920.543701	1364.286743
919.572327	1351.172119
918.600769	1353.501343
917.629028	1404.711548
916.657104	1401.885620
915.685059	1342.480957
914.712769	1398.807861
913.740356	1390.842651
912.767761	1362.316895
911.794983	1436.599121
910.822021	1348.977295
909.848877	1379.561646
908.875549	1361.332520
907.902039	1397.039795
906.928406	1440.436890
905.954590	1309.251343
904.980530	1373.182129
904.006348	1429.390991
903.031982	1390.646118
902.057434	1380.133423
901.082703	1346.541016
900.107849	1382.198730
899.132751	1410.151855
898.157532	1412.460327
897.182068	1317.374390
896.206482	1409.386841
895.230713	1491.117798
894.254761	1454.985718
893.278625	1408.622192
892.302307	1431.413330
891.325806	1415.793091
890.349182	1407.857666
889.372314	1387.128662
888.395325	1361.289429
887.418091	1419.885132
886.440735	1483.575439
885.463196	1381.009766
884.485474	1416.557251
883.507568	1416.300781
882.529480	1436.492676
881.551270	1413.232422
880.572815	1364.429443
879.594238	1512.351929
878.615417	1425.235718
877.636475	1440.299927
876.657349	1360.887939
875.677979	1506.150879
874.698486	1459.936035
873.718811	1452.015869
872.739014	1477.266846
871.758972	1446.387817
870.778748	1466.529663
869.798401	1371.912964
868.817810	1445.601563
867.837097	1455.536011
866.856140	1417.042603
865.875061	1455.008301
864.893799	1454.744507
863.912354	1418.819214
862.930725	1418.562012
861.948914	1428.489990
860.966919	1438.414429
859.984741	1415.244995
859.002441	1450.617432
858.019897	1384.197876
857.037231	1485.707520
856.054321	1376.064941
855.071289	1462.280640
854.088074	1515.410645
853.104614	1372.773926
852.121033	1448.776123
851.137268	1445.972046
850.153320	1445.709595
849.169189	1381.938965
848.184937	1414.706421
847.200439	1488.092285
846.215759	1472.588501
845.230896	1413.936035
844.245911	1499.972046
843.260681	1504.774780
842.275330	1425.851440
841.289795	1395.152710
840.304016	1420.261108
839.318115	1483.396118
838.332031	1460.309326
837.345764	1434.696045
836.359314	1424.298096
835.372681	1378.429443
834.385864	1438.981079
833.398865	1441.252441
832.411743	1425.795532
831.424377	1417.940308
830.436829	1415.151001
829.449158	1440.204956
828.461243	1520.924072
827.473206	1515.587280
826.484924	1449.538574
825.496521	1436.628662
824.507935	1474.299561
823.519104	1446.219604
822.530151	1408.038086
821.541016	1425.474121
820.551697	1495.970093
819.562195	1452.747192
818.572510	1429.748413
817.582642	1426.962646
816.592590	1426.703003
815.602356	1504.708496
814.611938	1330.263550
813.621399	1410.781738
812.630615	1397.908447
811.639648	1410.268311
810.648560	1488.205444
809.657227	1424.886353
808.665771	1449.841675
807.674072	1426.888672
806.682251	1386.300049
805.690186	1466.690430
804.697998	1461.384033
803.705566	1430.887939
802.713013	1486.038940
801.720276	1468.140381
800.727356	1377.232422
799.734253	1437.397583
798.740906	1454.753784
797.747437	1451.972290
796.753784	1504.542847
795.759949	1456.474243
794.765930	1360.637207
793.771729	1518.807983
792.777344	1458.192139
791.782776	1475.521973
790.788025	1467.713379
789.793091	1382.012329
788.798035	1494.813477
787.802734	1502.076416
786.807251	1421.438477
785.811584	1483.952148
784.815796	1483.681519
783.819763	1393.050903
782.823547	1422.911255
781.827148	1402.579102
780.830627	1472.564819
779.833862	1404.575439
778.836975	1454.473511
777.839844	1419.106445
776.842529	1413.833984
775.845093	1476.234375
774.847412	1400.788452
773.849609	1535.825806
772.851563	1525.525513
771.853394	1435.084717
770.854980	1377.229492
769.856445	1429.553467
768.857666	1514.399170
767.858765	1409.010010
766.859680	1513.846191
765.860352	1498.559082
764.860901	1480.776245
763.861206	1442.992920
762.861389	1387.720581
761.861389	1534.963501
760.861145	1392.212524
759.860779	1431.942505
758.860168	1474.156616
757.859436	1448.906006
756.858521	1403.683472
755.857361	1420.907227
754.856079	1493.053101
753.854614	1520.239380
752.852905	1460.061523
751.851074	1484.748291
750.848999	1539.365112
749.846802	1466.744141
748.844421	1434.053833
747.841797	1458.727173
746.839050	1431.036255
745.836121	1440.745117
744.832947	1522.723633
743.829651	1512.478149
742.826111	1504.727539
741.822449	1457.126831
740.818604	1526.590210
739.814514	1523.821045
738.810303	1476.242676
737.805847	1436.148560
736.801270	1488.145020
735.796448	1515.241455
734.791504	1422.921997
733.786316	1524.635498
732.781006	1521.869629
731.775452	1519.104736
730.769775	1511.369141
729.763855	1451.443970
728.757751	1560.513428
727.751526	1572.649902
726.745056	1485.422363
725.738403	1549.722046
724.731628	1539.505859
723.724609	1499.501831
722.717407	1558.799072
721.710083	1476.617065
720.702515	1533.415283
719.694763	1485.999146
718.686829	1540.294312
717.678711	1530.092407
716.670410	1576.921265
715.661987	1494.825806
714.653320	1487.116211
713.644470	1491.799683
712.635437	1486.570923
711.626221	1488.775513
710.616821	1515.746216
709.607178	1527.849609
708.597412	1522.617676
707.587463	1599.074219
706.577332	1430.488159
705.567017	1442.597900
704.556458	1509.130859
703.545776	1474.224487
702.534912	1533.307861
701.523804	1498.409790
700.512573	1532.745117
699.501099	1569.539551
698.489502	1465.458496
697.477661	1504.722412
696.465698	1487.153687
695.453491	1449.832153
694.441101	1523.649414
693.428589	1511.024658
692.415833	1483.593262
691.402893	1527.746338
690.389771	1517.595215
689.376465	1455.636963
688.362976	1499.770630
687.349304	1536.489258
686.335449	1464.698120
685.321411	1484.151978
684.307190	1565.221558
683.292725	1515.644653
682.278137	1552.326294
681.263367	1520.014771
680.248352	1549.292603
679.233215	1477.590942
678.217834	1533.949951
677.202332	1565.670654
676.186584	1506.311768
675.170654	1538.025757
674.154541	1520.520142
673.138306	1507.940918
672.121826	1451.095459
671.105164	1507.386230
670.088318	1507.109009
669.071289	1555.994263
668.054016	1540.962036
667.036621	1599.651855
666.019043	1562.505981
665.001282	1518.004761
663.983276	1549.651611
662.965149	1500.258179
661.946777	1522.076782
660.928223	1484.978882
659.909546	1575.505737
658.890625	1553.133301
657.871521	1508.690552
656.852234	1532.939819
655.832764	1581.702637
654.813110	1525.019897
653.793274	1608.084961
652.773254	1531.810913
651.752991	1556.033325
650.732605	1528.796753
649.711975	1494.221558
648.691223	1528.233521
647.670227	1598.962524
646.649048	1588.875244
645.627747	1542.075317
644.606201	1561.369507
643.584473	1553.741211
642.562561	1560.794067
641.540466	1594.749390
640.518127	1570.000610
639.495667	1581.936401
638.473022	1562.088013
637.450134	1552.023560
636.427063	1590.836182
635.403870	1600.315796
634.380432	1536.508423
633.356812	1565.532959
632.333008	1579.895508
631.309021	1579.604004
630.284851	1633.014160
629.260498	1588.783325
628.235901	1617.771118
627.211182	1583.317871
626.186218	1575.708130
625.161133	1519.326660
624.135803	1562.935303
623.110291	1506.576782
622.084595	1576.982544
621.058716	1620.556152
620.032654	1573.963989
619.006409	1556.621094
617.979919	1536.849121
616.953308	1563.351685
615.926453	1580.105713
614.899414	1567.642822
613.872253	1506.508789
612.844849	1613.296997
611.817261	1578.938721
610.789490	1588.376709
609.761475	1600.243164
608.733337	1602.379028
607.705017	1560.754517
606.676453	1480.255249
605.647705	1582.049316
604.618774	1618.203003
603.589722	1498.868896
602.560425	1632.177856
601.530884	1529.883789
600.501221	1612.150879
599.471375	1638.555176
598.441284	1601.846558
597.411011	1618.536499
596.380615	1657.055542
595.349976	1542.741455
594.319153	1663.718262
593.288147	1568.843506
592.256897	1551.582886
591.225525	1553.719727
590.193970	1597.054321
589.162170	1606.450806
588.130188	1564.970093
587.098022	1591.323730
586.065674	1627.354004
585.033142	1610.104370
584.000427	1544.445801
582.967468	1546.580200
581.934387	1626.149414
580.901062	1543.588135
579.867554	1589.262695
578.833862	1630.083374
577.799988	1685.397095
576.765930	1622.226685
575.731628	1663.018311
574.697205	1631.292725
573.662537	1628.574341
572.627747	1572.708374
571.592712	1601.401611
570.557434	1630.084229
569.522034	1579.077881
568.486450	1566.714966
567.450623	1556.770264
566.414673	1585.439453
565.378479	1585.145630
564.342102	1637.921387
563.305542	1574.910767
562.268799	1741.002686
561.231812	1620.134155
560.194702	1668.043091
559.157349	1687.013916
558.119812	1645.738281
557.082092	1693.615601
556.044189	1601.771606
555.006042	1680.946167
553.967773	1666.187622
552.929260	1610.509766
551.890625	1578.921265
550.851746	1593.067017
549.812683	1592.771362
548.773376	1597.286865
547.733948	1580.154663
546.694275	1606.312622
545.654419	1634.865112
544.614441	1646.580444
543.574158	1670.307861
542.533752	1633.954712
541.493164	1681.699829
540.452332	1676.583618
539.411316	1594.619995
538.370178	1695.169678
537.328735	1752.470215
536.287170	1713.741577
535.245422	1718.222656
534.203430	1641.125610
533.161255	1628.826416
532.118896	1580.555542
531.076355	1517.914551
530.033630	1591.955688
528.990723	1598.851074
527.947571	1591.364014
526.904236	1617.426270
525.860718	1597.959717
524.817017	1566.523804
523.773132	1578.206787
522.729004	1589.885376
521.684692	1670.984375
520.640198	1668.280029
519.595520	1622.501465
518.550659	1617.414429
517.505615	1626.682373
516.460327	1583.328491
515.414856	1573.468750
514.369202	1620.992920
513.323364	1592.006592
512.277283	1634.729492
511.231079	1546.013428
510.184631	1517.056885
509.138000	1583.655884
508.091187	1561.867554
507.044159	1528.148560
505.996948	1549.349609
504.949554	1577.703369
503.901947	1601.273560
502.854126	1608.133179
501.806152	1588.749634
500.757965	1607.534302
499.709564	1623.927246
