#Wave		#Intensity
3200.600830	58.937931
3200.007080	29.468966
3199.413086	33.673729
3198.819092	50.502956
3198.224854	50.495323
3197.630615	29.451153
3197.036377	29.446701
3196.442139	33.648285
3195.847656	42.054001
3195.252930	46.252407
3194.658447	63.061928
3194.063721	54.645405
3193.468750	63.042858
3192.873779	29.415552
3192.278809	46.217449
3191.683838	16.803802
3191.088623	8.400631
3190.493164	33.597443
3189.897949	58.786633
3189.302490	50.380920
3188.706787	79.757721
3188.111328	71.351379
3187.515381	41.965050
3186.919678	50.350441
3186.323730	75.514236
3185.727783	29.362206
3185.131592	33.551727
3184.535400	12.579994
3183.939209	46.119667
3183.342773	16.768250
3182.746338	33.531425
3182.149902	33.526348
3181.553223	29.331116
3180.956543	58.653355
3180.359619	67.022263
3179.762695	50.259087
3179.165771	33.500984
3178.568604	41.869892
3177.971436	46.049908
3177.374268	58.600101
3176.776855	46.035965
3176.179443	46.028996
3175.581787	62.757309
3174.984131	16.732748
3174.386475	41.825535
3173.788574	54.364964
3173.190674	0.000000
3172.592773	83.613075
3171.994629	66.880325
3171.396484	45.973259
3170.798340	41.787540
3170.199951	54.315575
3169.601563	50.129860
3169.002930	62.652832
3168.404297	41.762226
3167.805664	29.229130
3167.206787	16.699829
3166.607910	29.220272
3166.008789	33.389538
3165.409912	62.595894
3164.810547	50.069126
3164.211426	45.889744
3163.612061	25.026976
3163.012695	20.852652
3162.413086	37.529083
3161.813477	37.523396
3161.213623	62.529510
3160.614014	33.344017
3160.013916	25.004221
3159.414063	29.167170
3158.813965	37.494961
3158.213867	29.158325
3157.613525	66.637497
3157.013184	49.970543
3156.412598	54.126545
3155.812256	41.629490
3155.211426	37.460857
3154.610840	74.910355
3154.010010	45.771606
3153.409180	49.925087
3152.808105	58.237103
3152.207031	16.636648
3151.605957	54.060902
3151.004639	62.368500
3150.403320	29.100885
3149.801758	41.566383
3149.200195	29.092054
3148.598633	37.398396
3147.996826	49.856960
3147.395020	58.157627
3146.793213	29.074400
3146.191162	74.751396
3145.589111	49.826702
3144.986816	62.273922
3144.384766	62.264469
3143.782227	41.503345
3143.179932	62.245567
3142.577393	58.087044
3141.974609	66.375114
3141.371826	45.625961
3140.769043	58.060589
3140.166260	41.465553
3139.563232	37.313332
3138.960205	49.743553
3138.356934	62.169998
3137.753662	53.872482
3137.150391	45.577484
3136.546875	53.856121
3135.943359	37.279343
3135.339600	95.254959
3134.735840	53.831581
3134.132080	37.262356
3133.528076	41.396328
3132.924072	41.390041
3132.320068	24.830252
3131.715820	41.377464
3131.111572	8.274236
3130.507080	37.228401
3129.902588	37.222744
3129.298096	28.946623
3128.693604	57.884449
3128.088867	28.937826
3127.483887	28.933428
3126.878906	49.592621
3126.273926	66.113441
3125.668945	33.051697
3125.063721	57.831676
3124.458252	86.734329
3123.853027	90.850716
3123.247559	61.934254
3122.641846	66.053162
3122.036133	37.149254
3121.430420	37.143604
3120.824707	66.023033
3120.218750	57.761368
3119.612549	53.627396
3119.006592	41.245571
3118.400391	32.991436
3117.793945	41.233025
3117.187500	45.349426
3116.581055	32.976383
3115.974609	61.821316
3115.367920	65.932701
3114.760986	37.081501
3114.154297	70.032181
3113.547363	24.713480
3112.940186	41.182865
3112.333008	74.117874
3111.725830	65.872528
3111.118408	57.629692
3110.510986	57.620922
3109.903564	45.266689
3109.295898	69.946968
3108.688232	57.594616
3108.080566	57.585846
3107.472656	86.365623
3106.864746	53.456295
3106.256592	53.448154
3105.648438	24.664623
3105.040039	78.092751
3104.431885	53.423744
3103.823486	82.177864
3103.214844	36.974407
3102.606201	45.184059
3101.997559	57.498226
3101.388672	53.383076
3100.779785	57.480713
3100.170898	57.471958
3099.561768	36.940628
3098.952637	41.038891
3098.343262	45.135902
3097.733887	32.821110
3097.124512	28.714096
3096.514893	57.419445
3095.905273	57.410694
3095.295410	86.102921
3094.685791	61.492714
3094.075684	53.285564
3093.465820	36.884384
3092.855713	65.562241
3092.245361	90.134346
3091.635254	45.060303
3091.024658	77.819572
3090.414307	40.951424
3089.803711	57.323254
3089.193115	73.690094
3088.582275	24.559618
3087.971436	20.463228
3087.360596	45.012238
3086.749512	69.553764
3086.138428	61.361607
3085.527100	65.442398
3084.915771	16.358105
3084.304443	69.511345
3083.692871	49.059349
3083.081299	36.788898
3082.469482	53.131416
3081.857910	77.641762
3081.245850	49.029423
3080.634033	40.851620
3080.021973	53.099003
3079.409668	20.419577
3078.797607	61.249386
3078.185059	65.322708
3077.572754	77.558876
3076.960205	85.709892
3076.347656	61.212009
3075.734863	61.202667
3075.122070	53.034214
3074.509033	69.341850
3073.895996	44.861408
3073.282959	69.320686
3072.669922	77.464233
3072.056641	16.305769
3071.443115	77.440582
3070.829834	52.977573
3070.216064	32.596603
3069.602539	28.517673
3068.988770	57.026638
3068.375000	81.454185
3067.760986	73.297577
3067.146973	85.500778
3066.532715	61.062656
3065.918701	85.474663
3065.304199	48.835205
3064.689941	61.034679
3064.075439	65.093712
3063.460693	65.083771
3062.846191	69.140945
3062.231445	60.997395
3061.616455	77.251564
3061.001465	40.652504
3060.386475	56.904808
3059.771240	77.216156
3059.156006	97.521294
3058.540771	97.506386
3057.925293	52.807888
3057.309814	73.107437
3056.694092	48.730843
3056.078369	44.663113
3055.462646	60.894936
3054.846680	77.121796
3054.230713	52.759476
3053.614502	109.560623
3052.998291	60.857704
3052.382080	73.018082
3051.765625	85.174736
3051.149170	89.217033
3050.532715	85.148689
3049.916016	97.297905
3049.299316	36.481136
3048.682373	64.845428
3048.065430	56.731075
3047.448486	64.825600
3046.831299	20.254900
3046.214111	81.007210
3045.596680	76.945076
3044.979248	68.835060
3044.361816	72.873032
3043.744141	72.861885
3043.126465	68.803467
3042.508545	93.072807
3041.890869	105.196632
3041.272705	93.044319
3040.654785	93.030083
3040.036621	80.883347
3039.418213	93.001610
3038.799805	68.729797
3038.181396	88.930832
3037.562988	68.708755
3036.944336	88.903603
3036.325439	64.647270
3035.706543	96.956055
3035.087646	84.823563
3034.468750	84.810577
3033.849609	76.721626
3033.230469	76.709877
3032.611084	88.808365
3031.991699	84.758636
3031.372070	64.568123
3030.752441	72.628014
3030.132813	68.582611
3029.513184	92.774033
3028.893066	48.396427
3028.273193	64.518684
3027.653076	68.540604
3027.032959	60.467735
3026.412598	72.550163
3025.792480	68.509102
3025.171875	80.586594
3024.551270	84.602959
3023.930664	80.561897
3023.310059	88.604507
3022.689209	68.456627
3022.068115	76.498619
3021.447266	112.717537
3020.826172	96.600220
3020.204834	76.463455
3019.583496	92.546829
3018.962158	52.301060
3018.340576	84.473373
3017.718994	44.241173
3017.097412	28.149158
3016.475586	80.413834
3015.853760	68.341278
3015.231689	96.467010
3014.609619	100.471062
3013.987549	104.473877
3013.365234	100.440247
3012.742920	88.373856
3012.120361	44.180153
3011.497803	104.409798
3010.875244	76.287758
3010.252441	96.348709
3009.629639	108.375664
3009.006836	124.412231
3008.383789	100.317047
3007.760498	108.325790
3007.137451	80.229012
3006.514160	116.314217
3005.890625	96.245270
3005.267090	84.201691
3004.643555	76.170784
3004.019775	108.226082
3003.395996	116.224991
3002.772217	104.185722
3002.148193	96.156670
3001.524170	76.112343
3000.899902	88.116554
3000.275635	92.107712
2999.651367	84.085434
2999.026855	88.075974
2998.402344	96.068130
2997.777588	88.048927
2997.152832	104.041847
2996.528076	72.017906
2995.903076	80.007607
2995.278076	67.996025
2994.653076	79.983032
2994.027832	95.964897
2993.402344	87.954308
2992.777100	91.938103
2992.151367	99.917374
2991.525879	99.902023
2990.900146	95.891205
2990.274414	75.902206
2989.648438	87.873260
2989.022461	111.821510
2988.396240	95.832283
2987.770264	75.855560
2987.143799	91.811043
2986.517578	83.814590
2985.891113	87.792267
2985.264404	87.778770
2984.637695	103.722603
2984.010986	103.706657
2983.384033	95.714508
2982.757080	87.724808
2982.130127	115.619469
2981.502930	91.684097
2980.875732	111.598267
2980.248291	83.685829
2979.620850	115.548370
2978.993408	127.482040
2978.365723	115.512833
2977.738037	103.547302
2977.110107	103.531372
2976.482178	79.627266
2975.854248	103.499527
2975.226074	127.364441
2974.597900	87.549583
2973.969482	103.451767
2973.341309	143.218872
2972.712646	99.442245
2972.083984	91.472786
2971.455322	95.435181
2970.826660	107.348053
2970.197754	83.480080
2969.568604	151.035950
2968.939697	131.142609
2968.310547	123.175613
2967.681152	111.238266
2967.051758	95.332413
2966.422363	91.346161
2965.792725	107.215942
2965.163086	131.021530
2964.533203	127.031624
2963.903564	123.042938
2963.273438	103.181412
2962.643311	126.972954
2962.013184	111.084229
2961.383057	126.933846
2960.752686	146.744659
2960.122314	138.791138
2959.491699	142.734604
2958.861084	122.891426
2958.230225	138.727005
2957.599609	99.075455
2956.968506	126.797050
2956.337646	103.006729
2955.706299	95.068489
2955.075195	134.659607
2954.443848	114.839027
2953.812500	106.902618
2953.180908	138.556107
2952.549316	142.492889
2951.917725	158.301041
2951.285889	118.707481
2950.653809	150.339630
2950.021973	138.449371
2949.389893	146.338196
2948.757568	162.133545
2948.125244	142.339218
2947.492920	138.364014
2946.860352	122.532089
2946.227783	146.225433
2945.595215	142.251450
2944.962402	158.032806
2944.329590	177.759491
2943.696533	193.530472
2943.063477	197.449615
2942.430420	197.419174
2941.797119	177.649841
2941.163574	181.569611
2940.530273	157.862259
2939.896729	217.027130
2939.262939	205.157623
2938.629150	232.739090
2937.995361	216.926697
2937.361328	197.175659
2936.727295	248.403000
2936.093262	252.306961
2935.458984	236.501282
2934.824707	236.464783
2934.190186	267.952057
2933.555664	271.850555
2932.921143	267.869354
2932.286377	283.582581
2931.651367	271.724701
2931.016602	299.244781
2930.381592	299.198578
2929.746338	318.833466
2929.111084	326.655457
2928.475830	369.890015
2927.840332	314.751404
2927.204834	334.371735
2926.569336	322.520569
2925.933594	318.538177
2925.297607	338.148804
2924.661865	349.890625
2924.025879	381.282562
2923.389648	349.782562
2922.753418	278.996918
2922.117188	341.816650
2921.480713	373.190399
2920.844238	373.132751
2920.207764	341.658234
2919.571045	357.311432
2918.934082	349.404449
2918.297363	361.126312
2917.660156	345.371796
2917.023193	396.331360
2916.385986	404.117035
2915.748779	341.288818
2915.111328	411.836639
2914.473877	364.713196
2913.836182	360.735779
2913.198486	333.236969
2912.560791	403.742371
2911.922852	372.326172
2911.284912	380.105835
2910.646729	376.129059
2910.008545	403.492737
2909.370361	442.598328
2908.731934	395.535553
2908.093506	360.234100
2907.455078	375.838318
2906.816406	434.495850
2906.177490	442.256195
2905.538574	414.795624
2904.899658	430.381683
2904.260498	410.755341
2903.621338	418.514496
2902.982178	441.914215
2902.342773	488.767517
2901.703369	473.053741
2901.063721	476.889465
2900.424072	508.082275
2899.784424	500.188202
2899.144531	515.739258
2898.504639	515.659424
2897.864502	515.579651
2897.224365	488.162720
2896.583984	562.276367
2895.943848	523.148438
2895.303223	550.391846
2894.662842	612.752808
2894.021973	616.560181
2893.381348	554.037903
2892.740479	538.347839
2892.099609	581.169617
2891.458496	674.676331
2890.817383	658.974854
2890.176025	674.467407
2889.534668	537.931152
2888.893311	600.206970
2888.251709	697.535095
2887.610107	627.294739
2886.968262	642.780090
2886.326416	677.735840
2885.684570	654.264221
2885.042480	665.844360
2884.400391	751.392090
2883.758057	770.738770
2883.115723	832.891602
2882.473389	883.350891
2881.830811	968.811829
2881.188232	1019.234375
2880.545410	1050.193237
2879.902588	1291.148560
2879.259766	1388.158447
2878.616699	1376.279907
2877.973633	1216.691528
2877.330322	1329.214111
2876.687012	1080.304810
2876.043457	1049.054199
2875.399902	982.850220
2874.756348	831.214722
2874.112549	850.503723
2873.468750	714.467651
2872.824707	729.886353
2872.180664	632.728882
2871.536621	675.323608
2870.892334	663.577148
2870.248047	651.834290
2869.603760	675.009399
2868.958984	624.480774
2868.314453	585.602234
2867.669678	643.674805
2867.024902	628.067078
2866.379883	631.846008
2865.734863	631.747925
2865.089844	612.274170
2864.444580	666.422852
2863.799316	716.680786
2863.153809	662.342651
2862.508301	662.239868
2861.862549	596.310547
2861.216797	580.731812
2860.571045	596.125427
2859.925049	688.921143
2859.279053	669.465454
2858.632813	669.361511
2857.986572	738.891357
2857.340332	742.644531
2856.693848	804.406677
2856.047363	769.481079
2855.400635	777.093872
2854.753906	827.225159
2854.107178	780.717468
2853.460205	900.390625
2852.813232	846.158447
2852.166016	869.205811
2851.518799	942.458984
2850.871338	915.279053
2850.223877	988.502258
2849.576416	980.627197
2848.928711	1065.397827
2848.281006	1053.653687
2847.633301	1149.963379
2846.985352	1203.801392
2846.337158	1126.459473
2845.688965	1207.284302
2845.040771	1241.805542
2844.392578	1249.324463
2843.743896	1303.104980
2843.095459	1218.098145
2842.446777	1194.783936
2841.798096	1094.406006
2841.149170	1040.294678
2840.500244	1024.723511
2839.851074	947.529297
2839.202148	878.061340
2838.552734	785.511658
2837.903320	785.389526
2837.253906	758.321899
2836.604492	769.750244
2835.954834	692.667419
2835.304932	580.980652
2834.655029	553.961548
2834.005127	476.948242
2833.354980	465.336792
2832.704834	438.348267
2832.054688	426.746368
2831.404297	418.992035
2830.753906	365.119720
2830.103271	361.220154
2829.452637	307.373566
2828.801758	326.533569
2828.150879	276.550110
2827.500000	326.431946
2826.848877	264.944672
2826.197754	245.707550
2825.546387	253.346466
2824.895020	257.144989
2824.243408	264.779755
2823.591797	272.412109
2822.940186	230.171570
2822.288330	241.642517
2821.636475	210.924896
2820.984619	256.904877
2820.332520	214.693008
2819.680176	229.992401
2819.028076	218.458755
2818.375488	218.424728
2817.723145	214.559280
2817.070557	249.003235
2816.417725	225.983109
2815.764893	179.992401
2815.112061	202.938538
2814.458984	233.534363
2813.805908	206.703125
2813.152832	191.361969
2812.499512	221.945282
2811.845947	187.476288
2811.192383	202.748871
2810.538818	183.593002
2809.885010	133.849030
2809.231201	202.654083
2808.577393	202.622482
2807.923340	229.348190
2807.269287	152.874954
2806.614990	160.493683
2805.960693	179.572067
2805.306152	194.824417
2804.651611	175.696579
2803.997070	190.944763
2803.342285	179.460083
2802.687500	190.885223
2802.032471	202.306778
2801.377441	179.376144
2800.722412	202.243668
2800.067139	202.212128
2799.411621	175.477478
2798.756348	194.520767
2798.100586	198.303970
2797.445068	190.647141
2796.789307	213.491486
2796.133301	194.399399
2795.477539	186.746750
2794.821289	175.285919
2794.165283	209.548279
2793.509033	167.612473
2792.852539	190.438980
2792.196045	194.217438
2791.539551	182.764359
2790.882813	194.156815
2790.226074	232.190521
2789.569092	205.513626
2788.912109	205.481537
2788.255127	190.230972
2787.597900	190.201279
2786.940430	197.778442
2786.283203	152.113510
2785.625488	220.530136
2784.968018	190.082504
2784.310303	178.649643
2783.652588	212.825897
2782.994629	224.192261
2782.336426	239.354355
2781.678467	235.518280
2781.020264	148.125443
2780.361816	174.684769
2779.703369	212.626495
2779.044922	205.000656
2778.386230	201.172913
2777.727539	159.395126
2777.068604	178.342865
2776.409668	182.108932
2775.750732	250.360657
2775.091553	174.466507
2774.432373	219.945129
2773.772949	223.702316
2773.113525	227.458328
2772.453857	170.567078
2771.794189	234.966782
2771.134521	170.513748
2770.474609	189.430099
2769.814697	162.884415
2769.154541	215.882782
2768.494385	196.914902
2767.833984	204.456573
2767.173584	162.782547
2766.513184	230.887955
2765.852539	174.084991
2765.191895	170.273911
2764.531006	185.380356
2763.870117	200.482086
2763.209229	162.629822
2762.548096	207.982346
2761.886719	207.949814
2761.225586	177.674759
2760.563965	173.867233
2759.902588	200.293945
2759.240967	211.598221
2758.579102	200.231262
2757.917236	207.754639
2757.255371	200.168594
2756.593262	219.018127
2755.931152	203.881516
2755.269043	196.299606
2754.606689	192.494476
2753.944092	207.559586
2753.281494	215.073532
2752.618896	203.721970
2751.956055	215.006180
2751.293213	192.343826
2750.630371	203.626282
2749.967285	184.743057
2749.303955	211.101852
2748.640625	226.145142
2747.977295	165.813797
2747.313721	211.002670
2746.650146	207.202316
2745.986572	233.536926
2745.322754	214.669662
2744.658691	225.932663
2743.994873	199.542587
2743.330566	244.683685
2742.666504	225.826477
2742.002197	222.027908
2741.337646	225.755707
2740.673096	203.148285
2740.008545	199.355026
2739.343750	244.453705
2738.678955	236.894913
2738.013916	255.656006
2737.348877	270.652161
2736.683594	217.991180
2736.018311	248.020035
2735.353027	247.981140
2734.687500	240.428864
2734.021973	225.366714
2733.356201	244.108994
2732.690430	270.355255
2732.024658	259.049805
2731.358643	255.255417
2730.692383	243.955887
2730.026367	262.680511
2729.359863	262.639313
2728.693604	240.089691
2728.027100	300.065033
2727.360352	273.766388
2726.693604	258.724884
2726.026855	292.425720
2725.359863	284.882935
2724.692871	307.325439
2724.025635	329.760925
2723.358398	325.962463
2722.691162	337.149628
2722.023682	329.605682
2721.355957	303.339417
2720.688477	303.291809
2720.020508	277.037903
2719.352783	284.480743
2718.684814	318.119324
2718.016602	321.811371
2717.348389	321.760834
2716.680176	310.487854
2716.011719	366.542542
2715.343262	269.254272
2714.674561	299.124420
2714.005859	295.338989
2713.337158	302.768372
2712.668213	313.932678
2711.999023	313.883362
2711.329834	302.625702
2710.660645	336.197968
2709.991455	257.711273
2709.321777	313.686188
2708.652344	328.571991
2707.982666	268.789368
2707.312988	328.468719
2706.643066	276.168945
2705.972900	272.394104
2705.302979	257.427948
2704.632813	257.387482
2703.962402	287.184357
2703.291992	313.242767
2702.621582	283.365570
2701.950928	257.225677
2701.280273	249.730591
2700.609375	294.412170
2699.938477	245.925919
2699.267334	268.240631
2698.596191	275.648407
2697.925049	264.431885
2697.253662	260.666504
2696.582031	238.286163
2695.910645	264.307129
2695.239014	260.543518
2694.567139	275.388397
2693.895264	267.903320
2693.223145	245.539398
2692.551270	264.099335
2691.878906	256.619507
2691.206543	264.016235
2690.534180	252.820816
2689.861816	256.498413
2689.189209	263.891602
2688.516357	208.107101
2687.843506	248.946106
2687.170654	260.052002
2686.497559	226.581070
2685.824463	226.545410
2685.151123	248.789398
2684.477783	252.462921
2683.804199	233.862640
2683.130615	259.806488
2682.457031	263.476501
2681.783203	248.593613
2681.109375	267.103302
2680.435303	278.188782
2679.761230	215.098785
2679.086914	237.313004
2678.412598	233.568192
2677.738281	252.065643
2677.063721	270.557251
2676.389160	248.280563
2675.714355	263.061829
2675.039551	229.679779
2674.364502	233.347519
2673.689453	251.827484
2673.014404	236.976761
2672.339111	259.152496
2671.663574	248.006851
2670.988037	233.163727
2670.312500	262.730408
2669.636719	203.491470
2668.960938	270.046112
2668.285156	255.208832
2667.609131	229.281937
2666.932861	236.640823
2666.256592	258.785095
2665.580322	251.351593
2664.903809	243.920441
2664.227295	240.186798
2663.550781	236.454315
2662.874023	206.864899
2662.197021	247.460052
2661.520020	236.342468
2660.843018	232.612930
2660.165771	262.109711
2659.488525	228.848450
2658.811035	243.574432
2658.133545	250.915878
2657.455811	280.391144
2656.778076	247.147949
2656.100342	254.485336
2655.422363	243.382339
2654.744385	269.153137
2654.066162	243.305542
2653.387939	250.638870
2652.709473	235.858185
2652.031006	302.145599
2651.352539	261.572571
2650.673828	243.113602
2649.994873	254.124100
2649.316162	301.954865
2648.636963	228.271301
2647.958008	276.091034
2647.278809	220.837952
2646.599365	231.843246
2645.919922	231.806625
2645.240479	250.164474
2644.560791	268.516510
2643.880859	261.118652
2643.201172	275.785980
2642.520996	264.712738
2641.841064	272.022888
2641.160889	297.707733
2640.480469	242.538361
2639.800049	249.848526
2639.119629	242.461731
2638.438965	246.096497
2637.758301	290.127625
2637.077393	246.018738
2636.396484	242.308517
2635.715332	260.624023
2635.034180	201.859940
2634.353027	242.193649
2633.671631	238.486343
2632.989990	308.149017
2632.308350	260.418121
2631.626709	311.718872
2630.944824	286.002686
2630.262939	256.628510
2629.581055	190.608170
2628.898926	245.552475
2628.216553	282.157471
2627.534180	267.457642
2626.851807	271.078552
2626.169189	322.312714
2625.486572	238.034225
2624.803711	303.903320
2624.120850	292.872528
2623.437988	241.581619
2622.754883	296.439636
2622.071533	278.096893
2621.388184	289.028656
2620.704834	278.008881
2620.021240	288.937195
2619.337646	277.920898
2618.653809	277.876923
2617.969971	292.455750
2617.286133	299.719696
2616.602051	248.508698
2615.917725	281.355011
2615.233398	266.696960
2614.549072	295.877167
2613.864502	259.308075
2613.179932	314.041718
2612.495117	292.085602
2611.810303	270.136383
2611.125488	281.043365
2610.440430	288.297516
2609.755127	273.656830
2609.069824	284.558044
2608.384521	266.274963
2607.698975	280.820892
2607.013428	269.837067
2606.327637	258.856720
2605.641846	295.268616
2604.956055	258.774689
2604.270020	291.530945
2603.583740	273.266937
2602.897461	280.509613
2602.211182	251.325928
2601.524658	294.988037
2600.838135	298.582520
2600.151367	298.535217
2599.464600	251.166641
2598.777832	276.603455
2598.090820	262.003845
2597.403564	291.069244
2596.716309	251.007431
2596.029053	312.800232
2595.341553	280.020935
2594.654053	250.888062
2593.966309	298.109558
2593.278564	334.411346
2592.590820	272.574707
2591.902832	283.432739
2591.214600	283.387787
2590.526367	319.668854
2589.838135	261.505737
2589.149658	265.095734
2588.461182	283.208038
2587.772461	268.641907
2587.083740	268.599304
2586.394775	246.781815
2585.705811	301.171173
2585.016846	312.007385
2584.327637	304.703033
2583.638184	290.147308
2582.948975	282.848724
2582.259277	279.178162
2581.569824	275.508728
2580.879883	289.963165
2580.190186	253.677490
2579.500244	279.000946
2578.810059	307.939148
2578.119873	304.268036
2577.429688	322.328033
2576.739258	246.234009
2576.048584	289.641083
2575.358154	293.215027
2574.667236	271.452271
2573.976563	296.740692
2573.285645	267.747833
2572.594482	318.352264
2571.903320	292.982239
2571.212158	285.702728
2570.520752	282.041412
2569.829102	245.843201
2569.137451	289.181335
2568.445801	274.678619
2567.753906	296.316681
2567.062012	332.400055
2566.370117	328.734772
2565.677979	270.892181
2564.985596	241.958557
2564.293213	328.578064
2563.600830	259.932526
2562.908203	234.624008
2562.215332	292.331116
2561.522705	252.591675
2560.829590	306.669708
2560.136719	321.050171
2559.443604	310.178925
2558.750244	335.372711
2558.056885	335.319397
2557.363525	277.585876
2556.669922	263.123993
2555.976074	302.724640
2555.282227	245.023834
2554.588379	281.012054
2553.894287	255.752335
2553.200195	262.914795
2552.505859	298.882965
2551.811523	262.831146
2551.117188	280.788605
2550.422607	313.137451
2549.727783	298.692780
2549.032959	295.047119
2548.338135	277.012360
2547.643066	309.341187
2546.947998	287.713440
2546.252686	316.434418
2545.557373	269.645477
2544.861816	280.386658
2544.166260	244.400757
2543.470703	305.452301
2542.774902	262.287872
2542.078857	301.762634
2541.382813	316.081940
2540.686768	258.571320
2539.990479	276.483643
2539.294189	294.390228
2538.597656	283.574677
2537.901123	315.830353
2537.204346	305.014801
2536.507568	294.202728
2535.810791	272.632263
2535.113770	283.348907
2534.416504	283.303772
2533.719238	290.429718
2533.021973	301.138397
2532.324463	283.168365
2531.626953	311.793945
2530.929199	322.494080
2530.231445	290.198395
2529.533447	315.227020
2528.835449	318.758362
2528.137451	304.383606
2527.439209	268.530945
2526.740723	289.967194
2526.042236	307.817322
2525.343750	289.874756
2524.645020	311.297333
2523.946289	321.980377
2523.247314	289.736115
2522.548340	311.148438
2521.849121	336.129761
2521.149902	343.226685
2520.450684	325.298431
2519.751221	364.562042
2519.051514	293.032532
2518.351807	321.569794
2517.652100	292.939056
2516.952148	339.326477
2516.252197	335.701050
2515.552002	278.515991
2514.851807	285.611847
2514.151367	274.857544
2513.450928	296.227753
2512.750244	324.727997
2512.049561	306.836823
2511.348877	338.893555
2510.647949	296.038666
2509.946777	320.954559
2509.245605	249.591476
2508.544434	317.287079
2507.843018	306.543060
2507.141602	331.441315
2506.439941	363.458221
2505.738281	320.647217
2505.036377	284.974243
2504.334473	299.175171
2503.632568	302.688446
2502.930420	295.519135
2502.228027	320.391266
2501.525635	316.780762
2500.823242	302.495087
2500.120605	323.795959
2499.417969	305.956085
2498.715088	270.336578
2498.012207	302.301819
2497.309082	341.368683
2496.605957	330.648071
2495.902588	330.595245
2495.199219	348.313507
2494.495605	326.935913
2493.791992	330.436768
2493.088379	323.278900
2492.384521	326.779175
2491.680664	305.418671
2490.976563	333.776337
2490.272461	351.474182
2489.568115	351.417999
2488.863770	344.263580
2488.159180	315.820221
2487.454590	319.317688
2486.749756	329.908844
2486.044922	326.309235
2485.339844	336.895874
2484.634766	354.570496
2483.929688	368.694336
2483.224365	333.189667
2482.519043	336.680359
2481.813477	343.713379
2481.107666	364.915619
2480.402100	332.976501
2479.696045	343.548431
2478.990234	371.822815
2478.284180	322.194855
2477.577881	346.923553
2476.871582	325.631226
2476.165039	378.662659
2475.458496	378.602051
2474.751953	350.239258
2474.045166	357.257599
2473.338379	389.030151
2472.631348	350.071106
2471.924072	332.337524
2471.217041	325.214417
2470.509521	279.215485
2469.802246	300.373627
2469.094482	328.591461
2468.386963	342.669525
2467.679199	314.357788
2466.971191	300.181244
2466.263184	335.442963
2465.554932	363.632507
2464.846680	328.275787
2464.138428	370.574585
2463.429932	342.285492
2462.721436	363.399536
2462.012695	306.899963
2461.303955	317.431824
2460.594971	356.171967
2459.885986	303.226532
2459.176758	349.007172
2458.467529	299.604584
2457.758057	324.225922
2457.048584	341.792114
2456.338867	288.891357
2455.629150	362.817535
2454.919434	376.847107
2454.209473	352.137085
2453.499512	323.914185
2452.789307	323.862244
2452.078857	306.211914
2451.368408	365.987732
2450.657959	351.854858
2449.947266	299.028656
2449.236572	327.120056
2448.525879	337.618134
2447.814697	362.178040
2447.103760	365.635651
2446.392578	344.486023
2445.681152	337.401550
2444.969727	337.347412
2444.258301	361.887573
2443.546631	379.394043
2442.834717	330.160339
2442.122803	354.689819
2441.410889	358.144135
2440.698730	368.618591
2439.986572	379.089691
2439.274170	375.519318
2438.561768	336.860443
2437.849121	322.772766
2437.136475	406.909027
2436.423584	417.365509
2435.710693	340.150879
2434.997803	389.182312
2434.284424	336.536041
2433.571289	354.007111
2432.857910	353.950256
2432.144287	357.397308
2431.430908	399.379883
2430.717041	402.818512
2430.003174	392.247162
2429.289307	367.672638
2428.575195	325.600616
2427.861084	329.048798
2427.146729	395.495117
2426.432373	325.443665
2425.717773	430.356354
2425.003174	377.813141
2424.288330	391.743256
2423.573486	353.211700
2422.858643	377.631012
2422.143555	367.082245
2421.428223	419.455109
2420.712891	342.499939
2419.997559	363.410889
2419.281982	335.402283
2418.566162	359.800842
2417.850586	398.162140
2417.134521	415.558563
2416.418457	338.678131
2415.702393	352.587524
2414.986084	394.415680
2414.269775	359.453796
2413.553223	348.928131
2412.836670	362.826904
2412.120117	362.768524
2411.403076	376.660553
2410.686279	394.035126
2409.969238	352.134033
2409.251953	369.506958
2408.534668	400.815674
2407.817383	393.781586
2407.099854	383.265533
2406.382080	390.171173
2405.664307	334.378601
2404.946533	362.185181
2404.228516	403.910767
2403.510498	369.031464
2402.792236	355.048584
2402.073975	372.392944
2401.355469	400.170959
2400.636963	365.314667
2399.918213	386.127594
2399.199463	386.065430
2398.480469	316.453125
2397.761475	399.848877
2397.042480	365.020599
2396.323242	354.534332
2395.603760	399.655701
2394.884277	392.641907
2394.164795	409.949371
2393.445068	392.515411
2392.725098	416.763367
2392.005127	375.026581
2391.285156	371.494263
2390.564941	388.791138
2389.844727	392.199280
2389.124268	374.784912
2388.403809	371.254822
2387.683105	312.220093
2386.962402	353.792389
2386.241455	405.755280
2385.520508	367.548096
2384.799316	367.488831
2384.078125	346.631683
2383.356689	395.096405
2382.635254	353.450317
2381.913818	398.433624
2381.192139	391.441223
2380.470215	384.451050
2379.748291	398.240906
2379.026367	363.552612
2378.304199	346.184723
2377.581787	404.970795
2376.859375	356.455231
2376.136963	359.857910
2375.414307	356.340240
2374.691650	415.086700
2373.968750	356.225250
2373.245850	376.915405
2372.522705	390.684113
2371.799316	352.596008
2371.076172	390.558014
2370.352783	425.052063
2369.629150	373.156189
2368.905518	411.096497
2368.181641	355.765564
2367.457764	417.870728
2366.733643	390.179901
2366.009521	393.569275
2365.285400	414.216553
2364.561035	372.734680
2363.836426	355.421051
2363.111816	448.517242
2362.387207	365.654999
2361.662354	393.188080
2360.937256	458.645325
2360.212158	399.956879
2359.487061	448.155121
2358.761719	399.827667
2358.036377	385.978149
2357.310791	403.144165
2356.584961	437.530212
2355.859375	399.569336
2355.133301	375.396698
2354.407471	389.109833
2353.681152	409.704315
2352.955078	361.445374
2352.228516	402.688324
2351.502197	433.594269
2350.775635	378.473480
2350.048828	423.133759
2349.322021	416.186218
2348.594971	371.411957
2347.867920	398.859436
2347.140869	433.173828
2346.413330	381.543793
2345.686035	381.482086
2344.958496	405.473938
2344.230713	395.101379
2343.502930	446.564087
2342.775146	381.235352
2342.047119	398.343658
2341.319092	436.047089
2340.590820	442.842316
2339.862305	435.906006
2339.133789	394.654175
2338.405273	411.746399
2337.676514	373.942474
2336.947754	373.881958
2336.218750	432.123871
2335.489746	408.050934
2334.760498	452.554657
2334.031250	401.063080
2333.301758	424.989502
2332.572266	387.226105
2331.842529	390.589661
2331.112793	400.803436
2330.382813	407.588776
2329.652832	421.221008
2328.922607	383.488739
2328.192383	390.273529
2327.462158	373.095825
2326.731689	396.991821
2326.000977	441.410767
2325.270264	410.548157
2324.539307	386.536896
2323.808350	389.894409
2323.077393	413.768250
2322.346191	389.768066
2321.614746	423.889557
2320.883301	440.910431
2320.151855	413.500122
2319.420166	427.100342
2318.688232	464.609863
2317.956299	447.456085
2317.224365	481.534973
2316.492188	416.579742
2315.760010	389.199951
2315.027588	375.482941
2314.295166	392.486694
2313.562500	467.495300
2312.829590	433.301300
2312.096924	433.231018
2311.363770	446.803650
2310.630615	439.910858
2309.897461	375.056946
2309.164063	443.177246
2308.430664	391.977814
2307.697021	419.177826
2306.963379	412.295044
2306.229492	378.159698
2305.495605	408.754974
2304.761719	418.905884
2304.027344	360.949738
2303.293213	439.197754
2302.558838	469.763214
2301.824219	449.265808
2301.089600	401.551239
2300.354736	411.693329
2299.619873	381.009674
2298.885010	442.171570
2298.149658	397.889832
2297.414551	462.429321
2296.679199	397.760651
2295.943604	445.283630
2295.208008	414.624298
2294.472412	411.158966
2293.736572	448.464233
2293.000488	441.597595
2292.264404	417.751404
2291.528320	455.037354
2290.791992	421.010956
2290.055420	427.731964
2289.318848	417.480042
2288.582275	424.199432
2287.845459	407.165283
2287.108398	424.061584
2286.371582	396.857178
2285.634277	481.577454
2284.896973	434.027435
2284.159668	433.956909
2283.422119	413.547943
2282.684570	430.426666
2281.946777	481.186249
2281.208740	464.167603
2280.470703	477.642303
2279.732666	477.564636
2278.994385	433.463379
2278.256104	467.251740
2277.517578	409.625122
2276.779053	426.482422
2276.040283	412.876160
2275.301514	480.482605
2274.562500	453.339447
2273.823486	456.648285
2273.084229	463.338074
2272.344971	470.025665
2271.605469	429.378052
2270.865967	415.786682
2270.126221	459.656830
2269.386475	452.823486
2268.646484	439.234894
2267.906494	432.407043
2267.166260	459.357727
2266.426025	442.397583
2265.685547	479.467438
2264.945068	459.133514
2264.204346	442.181610
2263.463623	489.358002
2262.722656	401.545654
2261.981689	465.582184
2261.240723	455.386688
2260.499268	458.685242
2259.758057	485.587646
2259.016602	428.191589
2258.274902	377.556305
2257.533203	438.163605
2256.791260	485.271423
2256.049316	485.192383
2255.307129	481.744507
2254.564941	491.770935
2253.822754	458.013367
2253.080322	491.610718
2252.337646	454.497498
2251.594971	484.718353
2250.852051	467.811615
2250.109131	498.020416
2249.366211	504.668182
2248.623047	454.127319
2247.879639	477.596832
2247.136230	406.899994
2246.392578	480.803406
2245.648926	450.469635
2244.905273	517.619507
2244.161377	487.289551
2243.417236	497.290344
2242.673096	507.287811
2241.928955	476.974335
2241.184570	439.953857
2240.439941	490.250305
2239.695313	483.455688
2238.950439	449.809021
2238.205566	500.079193
2237.460693	476.507813
2236.715576	489.850647
2235.970215	543.444275
2235.224854	506.461060
2234.479492	449.368958
2233.733887	499.589935
2232.988037	506.213226
2232.242188	469.260162
2231.496338	489.291473
2230.750244	519.368530
2230.003906	432.178070
2229.257568	485.702271
2228.511230	458.830017
2227.764648	478.846588
2227.017822	482.116425
2226.270996	495.427673
2225.523926	502.040649
2224.776855	461.802002
2224.029785	471.764130
2223.282471	531.902466
2222.534912	528.470825
2221.787354	498.286682
2221.039795	438.019440
2220.291992	478.065247
2219.543945	498.042572
2218.795898	507.987305
2218.047852	461.123657
2217.299561	527.866882
2216.551025	497.717224
2215.802490	464.237518
2215.053955	507.572449
2214.305176	517.505737
2213.556152	460.671783
2212.807129	437.232910
2212.058105	507.240753
2211.308838	483.801880
2210.559326	493.730865
2209.809814	466.966370
2209.060303	416.866089
2208.310547	513.495056
2207.560547	530.080322
2206.810547	513.327209
2206.060303	446.588287
2205.310059	436.518646
2204.559814	479.758820
2203.809326	456.362549
2203.058594	446.296204
2202.307861	509.493683
2201.557129	499.421906
2200.806152	456.064056
2200.054932	479.288177
2199.303711	525.799622
2198.552246	499.095154
2197.800781	499.013519
2197.049316	482.300781
2196.297607	505.501556
2195.545654	475.492706
2194.793701	515.309814
2194.041504	501.929352
2193.289307	521.788147
2192.537109	511.733917
2191.784668	471.781281
2191.031982	504.922668
2190.279297	491.554718
2189.526367	524.681946
2188.773438	464.831940
2188.020508	514.551086
2187.267090	424.850037
2186.513916	524.338379
2185.760498	520.934448
2185.006836	464.451447
2184.253174	547.299561
2183.499268	520.678528
2182.745361	563.699646
2181.991211	520.507935
2181.237061	477.330353
2180.482666	550.165649
2179.728271	510.311005
2178.973877	546.672180
2178.218994	533.332153
2177.464355	519.996399
2176.709229	556.338074
2175.954346	516.515015
2175.198975	486.636261
2174.443848	519.655579
2173.688232	582.448364
2172.932861	499.632263
2172.177002	516.091736
2171.421387	516.007141
2170.665283	499.386566
2169.909424	529.064575
2169.153076	482.692230
2168.396729	489.224213
2167.640381	518.889221
2166.883789	505.586151
2166.127197	505.503235
2165.370361	502.116913
2164.613525	495.428833
2163.856445	554.789246
2163.099365	478.757385
2162.342041	534.799805
2161.584473	524.809998
2160.826904	521.423706
2160.069336	531.236938
2159.311523	488.261902
2158.553711	521.167053
2157.795654	540.869385
2157.037354	524.293396
2156.279053	497.832123
2155.520752	524.121277
2154.762207	527.331055
2154.003662	510.768066
2153.244873	530.452637
2152.485840	513.894531
2151.726807	540.159424
2150.967773	546.656921
2150.208252	543.274597
2149.448975	493.804840
2148.689453	506.889709
2147.929688	569.334534
2147.169922	549.498535
2146.410156	509.929810
2145.650146	539.450012
2144.889893	539.361389
2144.129639	506.390259
2143.369141	509.594757
2142.608643	522.659668
2141.847900	529.147034
2141.087158	535.632263
2140.326416	522.402039
2139.565186	532.171204
2138.804199	561.643921
2138.042725	528.712280
2137.281494	528.625366
2136.519775	505.558533
2135.758301	495.628479
2134.996338	538.209961
2134.234619	541.402710
2133.472412	511.787476
2132.710449	531.384216
2131.947998	573.931702
2131.185547	485.302429
2130.423096	557.350281
2129.660400	498.254730
2128.897705	563.721802
2128.134766	527.583008
2127.371826	520.943481
2126.608643	550.340271
2125.845215	507.670868
2125.081787	497.763062
2124.318359	530.423340
2123.554688	546.704407
2122.790771	523.702454
2122.026855	539.979248
2121.262939	500.625610
2120.498779	565.973694
2119.734375	507.002777
2118.969971	526.541992
2118.205322	559.154358
2117.440674	539.446106
2116.676025	519.744263
2115.911133	509.853790
2115.145996	611.070251
2114.380859	499.884216
2113.615479	545.535400
2112.850098	545.445496
2112.084473	538.824463
2111.318848	587.711670
2110.552979	532.117920
2109.787109	522.238281
2109.020996	544.996338
2108.254883	518.803284
2107.488525	544.816772
2106.722168	538.203308
2105.955566	554.421082
2105.188965	557.590515
2104.422119	521.636108
2103.655029	537.848572
2102.887939	570.351379
2102.120850	576.774597
2101.353516	586.453735
2100.585938	527.721375
2099.818359	511.349335
2099.050781	553.599060
2098.282959	533.972168
2097.514893	491.564026
2096.746826	556.580078
2095.978760	523.945068
2095.210449	536.873779
2094.441895	527.025452
2093.673340	513.927734
2092.904541	533.355957
2092.135742	578.790833
2091.366699	536.431030
2090.597656	575.349304
2089.828369	559.004211
2089.059082	588.157349
2088.289551	575.064453
2087.520020	626.944214
2086.750244	532.652222
2085.980469	620.242554
2085.210449	503.255127
2084.440186	558.358643
2083.670166	548.529236
2082.899658	528.967529
2082.129150	571.060791
2081.358643	557.989990
2080.587891	583.846558
2079.816895	525.375122
2079.045898	547.986023
2078.274902	547.895508
2077.503662	586.702393
2076.732178	560.678162
2075.960693	567.066284
2075.188965	537.814026
2074.417236	528.007263
2073.645264	566.785278
2072.873291	534.309265
2072.101074	524.507874
2071.328857	598.876038
2070.556396	572.883972
2069.783936	540.428345
2069.011230	514.454468
2068.238525	530.544617
2067.465576	553.098328
2066.692627	575.644592
2065.919434	514.114380
2065.145996	581.920044
2064.372559	488.085571
2063.599121	530.018494
2062.825439	623.638123
2062.051514	539.535461
2061.277588	591.129700
2060.503662	516.749268
2059.729248	581.246765
2058.955078	539.178589
2058.180664	600.422913
2057.406006	571.275696
2056.631348	616.359314
2055.856445	596.898499
2055.081543	580.669983
2054.306396	551.545227
2053.531250	535.329529
2052.755859	580.381775
2051.980225	541.599976
2051.204590	554.403442
2050.428955	583.316345
2049.653076	583.219788
2048.877197	612.118286
2048.101074	550.815247
2047.324707	586.150757
2046.548340	579.613586
2045.771851	537.663513
2044.995239	605.173706
2044.218506	640.476685
2043.441528	588.883545
2042.664551	566.264160
2041.887329	620.857239
2041.110107	656.134155
2040.332642	582.061829
2039.555176	578.750122
2038.777466	607.586975
2037.999634	588.200989
2037.221802	591.317200
2036.443726	607.284973
2035.665527	542.932007
2034.887207	607.083679
2034.108765	623.040833
2033.330200	622.937561
2032.551514	629.255249
2031.772705	587.421570
2030.993774	645.093750
2030.214600	616.106812
2029.435425	551.837524
2028.656128	574.200745
2027.876587	631.836853
2027.097046	593.250916
2026.317261	602.771240
2025.537476	577.025696
2024.757446	628.212646
2023.977295	634.517700
2023.197021	634.412415
2022.416626	611.882202
2021.636230	560.532043
2020.855591	618.084167
2020.074707	553.942078
2019.293823	665.900757
2018.512817	640.182922
2017.731689	604.872498
2016.950439	591.972717
2016.168945	623.867676
2015.387451	575.782227
2014.605713	537.307556
2013.823975	652.336609
2013.041992	681.003052
2012.260010	549.826660
2011.477783	604.069702
2010.695435	642.316650
2009.912964	648.600098
2009.130371	613.352417
2008.347656	645.190674
2007.564819	578.020386
2006.781860	590.696228
2005.998779	596.982910
2005.215576	612.843201
2004.432129	647.846375
2003.648682	545.632141
2002.864990	622.108704
2002.081299	606.056519
2001.297363	698.443787
2000.513428	628.176086
1999.729248	605.754395
1998.944946	586.527832
1998.160522	627.862915
1997.375977	640.504883
1996.591309	608.537842
1995.806519	643.477478
1995.021606	595.595459
1994.236572	633.710144
1993.451416	643.156616
1992.666016	601.665283
1991.880615	623.845398
1991.094971	617.376953
1990.309326	652.274353
1989.523438	623.534180
1988.737549	610.707397
1987.951416	629.687256
1987.165161	620.043396
1986.378784	661.269592
1985.592285	619.837097
1984.805664	641.980835
1984.018921	664.117126
1983.232056	654.475464
1982.444946	581.306213
1981.657837	638.377563
1980.870605	660.499695
1980.083130	666.739624
1979.295654	660.279846
1978.507935	637.952637
1977.720093	618.806274
1976.932129	698.024170
1976.144165	682.046387
1975.355957	608.981873
1974.567627	646.935486
1973.779053	602.437622
1972.990479	640.379639
1972.201782	675.139343
1971.412964	684.534302
1970.623901	693.926147
1969.834839	633.616943
1969.045532	601.835815
1968.256226	690.412354
1967.466675	642.799805
1966.677002	680.684387
1965.887207	658.412842
1965.097290	595.004761
1964.307251	645.535828
1963.517090	658.083679
1962.726807	645.320679
1961.936401	670.515564
1961.145874	673.566101
1960.355103	644.998047
1959.564331	638.568054
1958.773315	635.300842
1957.982178	669.956848
1957.191040	691.962646
1956.399658	644.460449
1955.608154	644.353027
1954.816528	672.668152
1954.024780	606.247620
1953.232910	650.344666
1952.440918	590.262939
1951.648682	687.999207
1950.856445	643.708374
1950.063965	665.685364
1949.271484	678.191772
1948.478760	589.770691
1947.685913	659.045532
1946.893066	684.157959
1946.099976	677.739197
1945.306763	649.260376
1944.513428	668.059326
1943.719971	664.797119
1942.926270	661.535950
1942.132568	705.520569
1941.338745	670.762451
1940.544678	683.244873
1939.750610	686.278809
1938.956299	648.393738
1938.161865	654.579468
1937.367310	654.470154
1936.572632	635.485046
1935.777832	695.142273
1934.982910	663.577026
1934.187866	723.209595
1933.392700	710.513306
1932.597290	726.111267
1931.801880	707.133118
1931.006226	691.303467
1930.210571	640.919739
1929.414673	659.660095
1928.618652	681.534851
1927.822510	678.280762
1927.026245	668.748413
1926.229858	674.914856
1925.433350	668.524841
1924.636719	690.379700
1923.839844	705.952087
1923.042969	680.737732
1922.245850	683.760437
1921.448730	699.326050
1920.651367	674.125366
1919.853882	711.631958
1919.056274	686.437622
1918.258545	701.992249
1917.460693	689.341370
1916.662720	679.827515
1915.864624	632.728943
1915.066284	688.995483
1914.267944	726.455505
1913.469360	723.203186
1912.670776	635.435852
1911.871948	729.220581
1911.072998	710.323486
1910.273926	719.590576
1909.474731	738.238892
1908.675415	678.690796
1907.875977	747.373047
1907.076294	712.855774
1906.276611	706.484375
1905.476807	690.738525
1904.676758	703.122803
1903.876587	678.009338
1903.076294	684.143677
1902.275879	627.807556
1901.475342	730.757996
1900.674683	736.880371
1899.873901	711.782166
1899.072998	721.026917
1898.271851	667.852417
1897.470703	670.860840
1896.669312	698.826294
1895.867920	704.947632
1895.066284	745.372803
1894.264526	704.711426
1893.462646	770.064392
1892.660645	769.935364
1891.858521	766.689697
1891.056152	729.167908
1890.253784	713.467834
1889.451172	791.224670
1888.648560	688.312317
1887.845703	790.959412
1887.042725	747.237915
1886.239624	734.660706
1885.436401	753.212219
1884.633057	675.287781
1883.829590	768.516602
1883.025879	759.055054
1882.222168	699.830933
1881.418213	718.372559
1880.614258	755.563843
1879.810059	702.587585
1879.005737	699.361450
1878.201294	748.968140
1877.396729	714.662964
1876.592041	726.969849
1875.787231	739.272583
1874.982178	704.986206
1874.177124	754.550232
1873.371826	788.574463
1872.566406	782.233887
1871.760986	726.238098
1870.955322	741.631470
1870.149536	701.173950
1869.343506	759.994568
1868.537476	738.156494
1867.731323	775.244263
1866.924927	713.104919
1866.118530	759.484253
1865.311890	777.953186
1864.505127	746.833557
1863.698242	765.298340
1862.891235	706.310608
1862.084106	718.581238
1861.276855	746.331848
1860.469482	789.554565
1859.661865	752.272644
1858.854126	733.574707
1858.046387	736.546143
1857.238403	767.364502
1856.430298	723.923828
1855.622070	729.988525
1854.813721	692.753967
1854.005249	776.125122
1853.196533	732.712036
1852.387817	763.499817
1851.578857	760.280884
1850.769775	713.802246
1849.960693	790.920532
1849.151367	756.808411
1848.341919	753.592590
1847.532227	821.401306
1846.722534	784.213684
1845.912720	734.690796
1845.102661	765.431396
1844.292603	762.216736
1843.482300	728.149353
1842.671875	746.536011
1841.861328	808.097168
1841.050659	755.536255
1840.239868	789.325439
1839.428833	823.103210
1838.617798	773.648438
1837.806519	736.537292
1836.995117	794.956665
1836.183716	770.177124
1835.372070	723.844666
1834.560303	794.555237
1833.748291	751.313293
1832.936279	748.108154
1832.124146	778.763367
1831.311768	750.933838
1830.499390	726.190735
1829.686768	759.910645
1828.874023	775.162842
1828.061157	738.125977
1827.248169	784.126770
1826.434937	793.218140
1825.621704	771.566711
1824.808228	740.702148
1823.994751	774.379639
1823.181030	838.769958
1822.367188	820.197205
1821.553223	792.416504
1820.739136	779.999512
1819.924927	779.868042
1819.110474	770.527100
1818.296021	770.397217
1817.481323	761.060974
1816.666626	791.615417
1815.851685	782.278687
1815.036621	806.684753
1814.221436	794.281799
1813.406006	806.412720
1812.590576	787.882568
1811.774902	790.814880
1810.959229	790.681458
1810.143311	827.317810
1809.327271	787.351135
1808.511108	814.786255
1807.694824	765.647400
1806.878418	808.387207
1806.061768	789.881470
1805.245117	817.297546
1804.428223	829.401733
1803.611206	835.381775
1802.794067	755.694031
1801.976807	810.628052
1801.159424	831.900391
1800.341919	801.180542
1799.524170	804.102722
1798.706421	810.080811
1797.888428	803.831238
1797.070313	803.695557
1796.252075	776.061584
1795.433716	772.875671
1794.615234	803.288452
1793.796509	815.368042
1792.977783	787.750671
1792.158813	839.514893
1791.339844	821.059448
1790.520630	900.266235
1789.701294	826.884521
1788.881714	826.744812
1788.062134	866.257813
1787.242432	823.415771
1786.422485	817.178284
1785.602417	792.650940
1784.782349	844.335388
1783.962036	841.145020
1783.141479	859.285522
1782.320923	786.021973
1781.500244	828.534241
1780.679321	837.530884
1779.858398	779.533264
1779.037231	800.713196
1778.215942	864.502319
1777.394531	739.572327
1776.572998	818.565063
1775.751221	809.299133
1774.929443	812.204224
1774.107422	839.439880
1773.285278	836.256958
1772.463013	790.509216
1771.640625	808.614868
1770.818115	832.793213
1769.995483	841.768921
1769.172607	850.741577
1768.349731	823.256958
1767.526611	850.453674
1766.703369	901.935669
1765.880005	753.004028
1765.056519	865.200867
1764.232910	840.772156
1763.409058	795.108398
1762.585083	831.384766
1761.761108	846.412720
1760.936890	800.771057
1760.112549	770.308350
1759.288086	794.435486
1758.463379	791.269226
1757.638672	797.197571
1756.813721	830.399780
1755.988647	790.867249
1755.163574	830.118469
1754.338257	808.773987
1753.512695	857.094666
1752.687134	817.584229
1751.861328	826.528442
1751.035522	823.361328
1750.209473	808.089050
1749.383301	853.342651
1748.557007	813.866211
1747.730591	798.603210
1746.903931	798.467834
1746.077271	846.716248
1745.250366	843.549255
1744.423340	810.153687
1743.596313	837.218323
1742.768921	809.878967
1741.941528	833.913025
1741.114014	882.106201
1740.286255	857.793396
1739.458374	905.966064
1738.630493	821.269958
1737.802368	860.375854
1736.973999	848.156494
1736.145630	841.976929
1735.317139	811.660828
1734.488403	908.061157
1733.659546	820.434326
1732.830566	781.089783
1732.001465	817.140564
1731.172241	868.252930
1730.342896	813.848999
1729.513306	858.916992
1728.683594	879.863831
1727.853882	831.510925
1727.023926	855.467468
1726.193726	858.333923
1725.363525	852.165833
1724.533203	797.828918
1723.702637	764.581665
1722.871948	836.683472
1722.041138	827.513977
1721.210205	851.442444
1720.379150	872.354675
1719.547974	857.168457
1718.716553	799.888000
1717.885010	880.929932
1717.053467	907.834961
1716.221558	868.608337
1715.389648	862.450623
1714.557617	928.404053
1713.725342	814.093018
1712.893066	849.996948
1712.060547	825.828369
1711.227905	891.743042
1710.395142	921.611328
1709.562256	897.442810
1708.729126	879.284424
1707.895874	927.142273
1707.062622	890.985229
1706.229126	863.838806
1705.395508	839.700439
1704.561646	881.535522
1703.727783	827.423218
1702.893677	911.209656
1702.059570	824.144836
1701.225220	785.051697
1700.390747	823.864502
1699.556030	874.645447
1698.721313	823.584167
1697.886353	847.398804
1697.051392	859.229919
1696.216187	868.063660
1695.380859	852.951843
1694.545410	858.791321
1693.709717	837.702576
1692.874023	888.411804
1692.038086	843.398926
1691.202026	828.304016
1690.365845	852.081055
1689.529541	848.946716
1688.692993	860.757141
1687.856445	878.539978
1687.019653	878.390320
1686.182739	896.164063
1685.345703	848.224121
1684.508545	863.010620
1683.671143	904.663269
1682.833740	901.523926
1681.996094	877.492981
1681.158325	916.137634
1680.320435	883.161316
1679.482422	859.145691
1678.644287	885.843018
1677.805908	924.459717
1676.967407	870.632996
1676.128784	888.371277
1675.290039	888.219849
1674.451172	888.068420
1673.612183	899.835388
1672.772949	959.263550
1671.933594	872.721436
1671.094116	884.484924
1670.254517	860.513611
1669.414795	836.550476
1668.574829	892.962097
1667.734863	874.953613
1666.894653	904.559631
1666.054321	895.480286
1665.213867	951.843201
1664.373169	924.914795
1663.532471	895.022095
1662.691528	844.328552
1661.850464	859.046875
1661.009277	882.676086
1660.167969	941.954773
1659.326538	891.287720
1658.484863	870.342468
1657.643066	867.223938
1656.801147	843.320435
1655.959106	887.710449
1655.116943	851.937805
1654.274658	884.439453
1653.432129	813.070557
1652.589478	901.938843
1651.746704	878.053650
1650.903809	869.006042
1650.060791	856.996094
1649.217529	809.411682
1648.374146	913.026428
1647.530640	895.087280
1646.687012	841.593872
1645.843262	909.595703
1644.999390	897.590942
1644.155273	915.208618
1643.311035	894.322876
1642.466675	837.914307
1641.622192	932.501404
1640.777588	902.743896
1639.932739	967.694397
1639.087769	920.188171
1638.242798	854.948303
1637.397461	913.957947
1636.552124	899.015259
1635.706665	872.250549
1634.860962	889.839050
1634.015137	919.244629
1633.169189	880.668945
1632.323120	936.658752
1631.476929	936.498596
1630.630493	921.569641
1629.783936	959.804199
1628.937256	947.829041
1628.090454	909.287842
1627.243530	906.180542
1626.396484	959.147522
1625.549194	908.821228
1624.701782	902.765259
1623.854248	890.811951
1623.006592	976.186401
1622.158691	878.712219
1621.310791	910.991943
1620.462646	837.143799
1619.614380	881.208252
1618.765991	895.790771
1617.917358	898.583618
1617.068726	901.375427
1616.219849	960.124390
1615.370850	957.015320
1614.521729	918.577393
1613.672363	965.518555
1612.822998	932.978516
1611.973389	873.965759
1611.123657	953.253906
1610.273804	947.207336
1609.423828	955.868408
1608.573608	958.645325
1607.723389	843.816101
1606.872925	911.282837
1606.022339	881.735474
1605.171509	910.970520
1604.320679	860.866516
1603.469604	898.907837
1602.618408	895.816650
1601.767090	925.029114
1600.915649	945.423218
1600.064087	951.132263
1599.212280	889.332336
1598.360352	930.264038
1597.508301	906.631836
1596.656128	941.679321
1595.803833	879.923218
1594.951294	894.435181
1594.098633	870.825195
1593.245850	961.554382
1592.392944	949.665222
1591.539795	931.918884
1590.686646	937.619141
1589.833252	890.585327
1588.979736	884.574402
1588.126099	890.279724
1587.272217	951.615967
1586.418335	939.742432
1585.564209	872.259155
1584.709961	983.317993
1583.855591	933.406555
1583.000977	863.033386
1582.146362	909.685791
1581.291504	906.605042
1580.436523	906.449402
1579.581421	985.229004
1578.726074	909.061096
1577.870605	885.524780
1577.015137	935.047119
1576.159424	899.828247
1575.303467	958.094055
1574.447510	922.883240
1573.591309	876.004456
1572.734985	870.014954
1571.878540	852.351379
1571.021973	881.390015
1570.165161	910.418640
1569.308350	913.179688
1568.451294	959.694824
1567.594116	918.698853
1566.736694	892.296875
1565.879272	947.538025
1565.021606	935.715149
1564.163818	929.725281
1563.305908	1019.899353
1562.447876	926.492065
1561.589600	923.419739
1560.731201	958.210938
1559.872681	891.070251
1559.014038	890.916992
1558.155273	925.695679
1557.296265	937.178406
1556.437134	905.007263
1555.577881	960.131897
1554.718506	942.512756
1553.859009	823.102539
1552.999268	945.096436
1552.139404	918.766418
1551.279419	909.887329
1550.419312	935.889099
1549.558960	906.668152
1548.698608	923.945007
1547.838013	947.025879
1546.977173	885.868591
1546.116333	888.620117
1545.255249	952.343811
1544.394165	978.306702
1543.532837	908.478577
1542.671265	992.479736
1541.809692	913.968628
1540.947876	968.929993
1540.085938	933.957275
1539.223877	977.296204
1538.361694	916.238586
1537.499268	939.272644
1536.636841	965.197266
1535.774170	956.336975
1534.911377	935.889709
1534.048340	880.685608
1533.185303	961.635620
1532.322021	918.030029
1531.458618	923.662781
1530.594971	914.818542
1529.731323	955.183838
1528.867432	978.171143
1528.003418	934.600037
1527.139282	992.298889
1526.275024	945.847778
1525.410522	887.844604
1524.545898	890.583008
1523.681152	959.813538
1522.816284	976.991028
1521.951172	968.152466
1521.086060	970.875000
1520.220703	912.927307
1519.355225	927.212341
1518.489502	906.836304
1517.623779	926.892456
1516.757813	967.150757
1515.891724	923.686096
1515.025513	897.552490
1514.159058	934.909363
1513.292480	923.207886
1512.425781	960.547363
1511.558960	954.613525
1510.692017	925.613403
1509.824829	939.868774
1508.957520	968.531860
1508.090088	939.544250
1507.222534	933.618958
1506.354736	988.197510
1505.486938	988.026855
1504.618896	933.135315
1503.750610	878.262695
1502.882324	961.603455
1502.013794	941.287476
1501.145142	990.051819
1500.276367	938.084717
1499.407471	1004.095093
1498.538330	960.773071
1497.669067	954.854919
1496.799683	977.694458
1495.930176	940.149536
1495.060547	954.359924
1494.190674	957.069031
1493.320679	956.903625
1492.450562	919.388062
1491.580200	1005.406799
1490.709717	973.639954
1489.839233	1022.288757
1488.968384	973.303223
1488.097534	1016.194031
1487.226440	958.616089
1486.355347	975.667969
1485.483887	995.583008
1484.612427	1018.359741
1483.740845	992.370483
1482.869019	972.125427
1481.997070	983.425720
1481.124878	983.255554
1480.252686	1023.211365
1479.380249	1000.109192
1478.507690	1080.160156
1477.635010	1045.597412
1476.762207	1051.144775
1475.889160	1050.962769
1475.015991	1082.275635
1474.142700	1073.500366
1473.269165	1124.833496
1472.395630	1081.713623
1471.521851	1170.222900
1470.647949	1170.020264
1469.773804	1209.860352
1468.899658	1266.844727
1468.025269	1312.372437
1467.150757	1289.275513
1466.276001	1357.649170
1465.401245	1403.137451
1464.526245	1520.040283
1463.651123	1442.645386
1462.775879	1510.944946
1461.900391	1584.932129
1461.024780	1504.710815
1460.149048	1481.612061
1459.273193	1527.023315
1458.397217	1475.390991
1457.520996	1472.282104
1456.644653	1540.493164
1455.768188	1443.248901
1454.891479	1485.775391
1454.014648	1474.112549
1453.137695	1416.841187
1452.260620	1422.296143
1451.383423	1470.496094
1450.505981	1413.254883
1449.628418	1438.649048
1448.750732	1486.820923
1447.872803	1475.171753
1446.994873	1531.862305
1446.116699	1451.885254
1445.238403	1445.940674
1444.359863	1531.065186
1443.481201	1596.242554
1442.602417	1709.759888
1441.723511	1780.572266
1440.844482	1857.047729
1439.965210	1879.472412
1439.085815	2103.733887
1438.206299	2200.010010
1437.326538	2071.742676
1436.446777	2048.651855
1435.566772	1889.205200
1434.686646	1783.781738
1433.806274	1692.594360
1432.925781	1575.883789
1432.045166	1467.730469
1431.164429	1464.637085
1430.283569	1350.864624
1429.402466	1370.492188
1428.521240	1273.797241
1427.639893	1194.154785
1426.758301	1202.455200
1425.876709	1185.233398
1424.994873	1216.212280
1424.112793	1193.324951
1423.230713	1150.607422
1422.348389	1136.239868
1421.465942	1141.708374
1420.583374	1172.667847
1419.700562	1090.334839
1418.817627	1209.070190
1417.934570	1288.129517
1417.051392	1369.991821
1416.167969	1454.655640
1415.284546	1460.061768
1414.400757	1553.167725
1413.516968	1388.839111
1412.633057	1300.926514
1411.748901	1207.389038
1410.864624	1111.057007
1409.980103	1105.210449
1409.095459	1042.843262
1408.210815	966.369507
1407.325806	969.026489
1406.440796	963.208557
1405.555542	1016.700073
1404.670166	985.462708
1403.784668	945.766602
1402.899048	908.906982
1402.013184	903.104309
1401.127197	948.094482
1400.241089	950.750610
1399.354736	930.839966
1398.468262	885.554138
1397.581665	1006.648926
1396.694946	972.642578
1395.807983	893.547852
1394.920898	935.666260
1394.033691	921.414368
1393.146362	940.974915
1392.258789	949.261414
1391.371094	935.014465
1390.483276	920.772461
1389.595337	943.134644
1388.707153	920.451599
1387.818848	934.362915
1386.930420	841.342834
1386.041748	959.357544
1385.152954	945.125916
1384.264038	916.837341
1383.375000	922.301331
1382.485718	908.083496
1381.596313	983.819824
1380.706787	941.491943
1379.817139	949.757568
1378.927246	958.020264
1378.037231	957.853210
1377.147095	890.283020
1376.256714	932.247314
1375.366333	954.544556
1374.475586	1002.096985
1373.584839	948.598572
1372.693970	1018.583435
1371.802856	965.100708
1370.911499	942.492004
1370.020142	1009.636658
1369.128540	992.636108
1368.236816	970.034363
1367.344971	1073.578857
1366.453003	1011.734558
1365.560791	989.141174
1364.668457	924.531433
1363.775879	988.795776
1362.883301	999.825684
1361.990479	935.247803
1361.097534	929.485168
1360.204346	948.916992
1359.311035	917.965820
1358.417603	968.172913
1357.524048	892.465881
1356.630249	998.604004
1355.736450	917.324585
1354.842285	950.719116
1353.948120	989.693420
1353.053711	900.072327
1352.159180	919.478394
1351.264526	941.671936
1350.369751	902.394348
1349.474731	918.996399
1348.579590	938.385498
1347.684204	915.882813
1346.788818	907.347229
1345.893188	904.397217
1344.997314	923.775146
1344.101440	851.063904
1343.205322	1018.308228
1342.309082	959.552795
1341.412720	934.284790
1340.516113	981.524536
1339.619385	975.776978
1338.722534	1000.693298
1337.825439	992.157410
1336.928223	964.119080
1336.030884	947.234497
1335.133423	849.576416
1334.235718	877.277832
1333.337891	930.030212
1332.439941	921.515320
1331.541870	1013.211121
1330.643555	862.748535
1329.745117	912.683838
1328.846436	931.998657
1327.947754	976.341064
1327.048828	901.080139
1326.149780	959.315430
1325.250488	884.083740
1324.351074	925.623718
1323.451538	911.565796
1322.551880	897.512756
1321.651978	944.584778
1320.751953	883.309814
1319.851807	930.367798
1318.951416	963.525574
1318.050903	966.132996
1317.150269	990.945557
1316.249512	985.221375
1315.348511	993.373047
1314.447388	1001.521851
1313.546021	1009.667786
1312.644653	1056.637329
1311.743042	1042.588013
1310.841309	1020.226379
1309.939331	1061.625488
1309.037231	1053.125244
1308.135010	1050.169678
1307.232666	986.266113
1306.330078	1080.270630
1305.427368	1105.006104
1304.524536	1077.122803
1303.621460	1137.840088
1302.718262	1101.656738
1301.814941	1165.115967
1300.911499	1137.241455
1300.007813	1220.037720
1299.104004	1241.951904
1298.199951	1327.466187
1297.295898	1471.016846
1296.391602	1788.685913
1295.487061	2186.402344
1294.582520	2669.650879
1293.677734	2865.364502
1292.772827	2635.562012
1291.867676	2143.435059
1290.962402	1684.620972
1290.057007	1419.251099
1289.151489	1256.120361
1288.245728	1090.286621
1287.339844	1070.776978
1286.433838	960.218933
1285.527588	960.050293
1284.621216	965.398193
1283.714722	896.283752
1282.808105	874.067810
1281.901245	923.537109
1280.994263	904.080444
1280.087036	837.781006
1279.179810	823.856934
1278.272217	842.996338
1277.364624	897.936340
1276.456787	867.485352
1275.548828	806.757263
1274.640747	886.451111
1273.732544	902.810059
1272.824097	921.915283
1271.915405	883.232178
1271.006714	858.317688
1270.097778	863.667847
1269.188721	871.766113
1268.279541	758.880554
1267.370117	805.481506
1266.460571	860.311829
1265.550781	849.168030
1264.640991	868.252075
1263.730957	815.903442
1262.820679	826.746582
1261.910400	884.270935
1260.999878	782.524475
1260.089233	826.310242
1259.178345	834.398987
1258.267334	768.390137
1257.356201	779.229980
1256.444824	812.012207
1255.533447	765.241638
1254.621704	773.333862
1253.709961	792.390564
1252.797974	808.699158
1251.885864	811.297607
1250.973633	767.308533
1250.061157	775.393127
1249.148560	799.911377
1248.235840	777.858948
1247.322876	761.291199
1246.409790	772.109009
1245.496582	733.648071
1244.583130	760.888916
1243.669556	804.539307
1242.755859	768.828918
1241.841919	812.462463
1240.927856	749.412415
1240.013672	776.626343
1239.099365	710.870605
1238.184814	751.749817
1237.270142	765.283081
1236.355225	740.554138
1235.440186	726.762634
1234.525024	737.561279
1233.609741	786.593323
1232.694214	759.147156
1231.778564	726.250122
1230.862671	756.149658
1229.946777	731.452576
1229.030640	794.086365
1228.114258	769.391235
1227.197876	791.078369
1226.281128	763.665039
1225.364380	733.534485
1224.447388	722.499390
1223.530273	749.631226
1222.613037	741.322571
1221.695557	760.266541
1220.777954	735.611938
1219.860229	738.206116
1218.942261	732.628723
1218.024170	781.514221
1217.105957	759.595703
1216.187500	740.406982
1215.268921	770.213928
1214.350220	710.213196
1213.431274	764.500610
1212.512207	734.443787
1211.593018	739.753418
1210.673706	723.307556
1209.754150	682.398987
1208.834351	733.924988
1207.914551	741.948608
1206.994507	758.121216
1206.074219	752.553650
1205.153931	755.136963
1204.233398	695.255066
1203.312744	719.570435
1202.391846	768.311035
1201.470825	743.745667
1200.549683	814.176086
1199.628296	681.073608
1198.706787	713.508728
1197.785156	775.769592
1196.863281	756.648438
1195.941284	729.399414
1195.019165	737.403564
1194.096802	756.247070
1193.174438	802.184692
1192.251709	783.075562
1191.328979	763.973206
1190.406006	725.916992
1189.482788	763.702881
1188.559570	733.783203
1187.636108	676.802002
1186.712402	763.297546
1185.788696	700.918701
1184.864746	733.263916
1183.940552	735.839417
1183.016357	768.166931
1182.091919	827.526306
1181.167236	735.448730
1180.242554	700.174622
1179.317505	700.050659
1178.392456	721.546021
1177.467163	772.755127
1176.541748	767.215393
1175.616211	713.059814
1174.690430	758.842102
1173.764526	788.407959
1172.838501	718.080078
1171.912231	844.809143
1170.985840	850.056641
1170.059204	925.453247
1169.132446	927.986938
1168.205566	925.125305
1167.278564	924.961365
1166.351318	849.303772
1165.423828	819.500244
1164.496338	776.231018
1163.568604	754.535278
1162.640747	746.318665
1161.712646	781.205872
1160.784424	767.600708
1159.856079	778.236023
1158.927490	737.712280
1157.998779	718.738159
1157.069946	718.610657
1156.140869	750.774597
1155.211670	774.855652
1154.282349	731.678284
1153.352783	718.100891
1152.423096	771.754272
1151.493164	752.797424
1150.563232	771.480469
1149.632935	706.840942
1148.702637	784.642334
1147.772095	757.636475
1146.841431	749.443481
1145.910522	671.425171
1144.979492	757.233093
1144.048340	773.207153
1143.116943	711.331665
1142.185425	791.719177
1141.253784	732.545593
1140.321899	759.243958
1139.389893	772.520935
1138.457764	815.293884
1137.525391	817.830505
1136.592896	855.218323
1135.660278	860.427307
1134.727417	865.634399
1133.794434	975.340393
1132.861206	1004.636414
1131.927856	1141.064209
1130.994385	1365.819946
1130.060669	1577.107910
1129.126831	1847.217285
1128.192871	2015.517944
1127.258667	2004.454956
1126.324341	1709.771729
1125.389893	1548.954346
1124.455200	1401.567871
1123.520386	1171.331299
1122.585327	1050.802124
1121.650146	973.088928
1120.714844	911.440430
1119.779297	903.261169
1118.843628	908.444336
1117.907837	825.468689
1116.971802	854.702271
1116.035645	771.765625
1115.099365	795.658264
1114.162842	782.169067
1113.226196	720.641907
1112.289307	736.525085
1111.352417	784.419678
1110.415161	786.947693
1109.477905	840.150513
1108.540405	786.667542
1107.602661	735.869812
1106.664917	802.381775
1105.726807	804.904175
1104.788696	743.471130
1103.850342	714.031494
1102.911865	713.904297
1101.973145	804.330994
1101.034302	721.638672
1100.095337	726.834900
1099.156128	769.296204
1098.216797	715.930176
1097.277344	800.953857
1096.337646	776.866638
1095.397827	760.768005
1094.457764	803.185303
1093.517700	733.906128
1092.577271	728.458069
1091.636841	797.439697
1090.696167	754.775024
1089.755249	757.297668
1088.814209	794.356628
1087.873047	820.777344
1086.931763	799.384888
1085.990234	844.382263
1085.048584	785.825745
1084.106689	830.809448
1083.164673	841.276733
1082.222412	811.939331
1081.280151	854.241272
1080.337524	880.613403
1079.394897	856.588501
1078.452026	851.132629
1077.509033	837.725647
1076.565796	829.624451
1075.622437	747.323792
1074.678955	834.627625
1073.735229	813.285522
1072.791382	768.113037
1071.847290	778.568726
1070.903076	828.736389
1069.958740	873.591675
1069.014160	852.261475
1068.069458	905.035339
1067.124512	936.623718
1066.179565	1068.724365
1065.234253	1108.206665
1064.288940	1327.494995
1063.343384	1472.674561
1062.397583	1686.532471
1061.451660	1673.016113
1060.505615	1651.577026
1059.559448	1447.843994
1058.613037	1407.961670
1057.666382	1254.525879
1056.719727	1050.972778
1055.772827	931.977600
1054.825684	934.450684
1053.878418	823.436462
1052.931030	833.844238
1051.983398	815.227234
1051.035645	799.254700
1050.087769	778.013123
1049.139648	793.695190
1048.191406	682.824890
1047.242920	701.154175
1046.294312	724.747803
1045.345581	698.268433
1044.396606	684.971008
1043.447510	711.188782
1042.498291	682.092407
1041.548828	718.833618
1040.599121	726.602844
1039.649414	747.530029
1038.699341	636.865845
1037.749268	699.900818
1036.798950	741.867310
1035.848511	691.759460
1034.897827	696.895264
1033.947021	631.037415
1032.996094	728.191956
1032.044922	704.406189
1031.093506	699.024231
1030.142090	669.997192
1029.190430	683.012085
1028.238525	680.263245
1027.286499	701.149658
1026.334351	690.521851
1025.381958	700.898499
1024.429443	690.274475
1023.476807	677.030029
1022.523926	721.511230
1021.570923	674.164246
1020.617737	666.175232
1019.664368	694.900818
1018.710815	644.962097
1017.757080	623.875916
1016.803223	652.593506
1015.849121	647.235718
1014.894897	639.259949
1013.940491	704.631531
1012.985962	657.363586
1012.031189	670.338257
1011.076294	654.509827
1010.121216	630.834290
1009.165955	638.572510
1008.210510	685.557312
1007.254944	612.181824
1006.299133	667.001526
1005.343201	666.881897
1004.387085	658.917969
1003.430786	692.785461
1002.474365	674.364441
1001.517700	689.923462
1000.560913	679.348145
999.603943	687.063477
998.646790	671.268494
997.689514	655.479187
996.731995	624.029480
995.774353	629.138489
994.816528	631.635620
993.858521	660.227783
992.900330	714.900879
991.942017	680.859924
990.983459	662.480347
990.024780	651.930481
989.065918	643.991577
988.106873	641.269104
987.147705	693.280273
986.188293	654.067993
985.228760	648.739685
984.269043	648.623108
983.309143	648.506592
982.349060	604.122437
981.388794	658.687561
980.428406	668.981323
979.467834	666.258484
978.507019	629.709290
977.546082	660.815674
976.585022	676.303894
975.623718	673.581604
974.662292	657.859070
973.700623	629.143372
972.738831	636.828125
971.776855	636.713562
970.814758	631.402344
969.852417	610.505554
968.889954	649.357178
967.927246	654.434265
966.964417	667.299011
966.001404	672.370972
965.038208	672.250000
964.074890	659.153564
963.111328	659.034973
962.147644	684.857910
961.183777	666.578796
960.219727	619.780762
959.255493	661.153320
958.291077	707.695557
957.326538	663.507080
956.361755	653.022217
955.396851	671.040833
954.431763	676.100830
953.466492	647.489563
952.501038	688.804810
951.535461	634.311218
950.569641	636.785461
949.603699	644.435059
948.637573	641.731323
947.671265	695.946045
946.704773	659.606934
945.738098	690.522827
944.771240	680.055298
943.804260	698.029785
942.837097	648.792236
941.869751	653.843994
940.902222	682.149048
939.934509	651.024841
938.966614	627.660767
937.998535	661.120117
937.030334	676.493103
936.061951	655.718567
935.093323	686.573547
934.124573	691.611023
933.155640	619.241394
932.186584	624.289124
931.217285	680.919861
930.247864	685.954529
929.278198	678.095825
928.308411	675.395630
927.338440	662.386841
926.368286	633.921265
925.397949	672.453613
924.427429	669.756226
923.456787	713.419189
922.485901	682.389771
921.514893	643.647705
920.543701	622.938477
919.572327	694.888489
918.600769	733.360962
917.629028	674.055725
916.657104	635.349976
915.685059	655.809631
914.712769	719.974670
913.740356	691.565002
912.767761	678.588013
911.794983	647.626099
910.822021	668.064941
909.848877	724.462585
908.875549	688.371948
907.902039	677.975159
906.928406	647.041138
905.954590	700.834595
904.980530	693.007813
904.006348	674.918884
903.031982	677.362671
902.057434	715.719727
901.082703	689.941956
900.107849	684.688416
899.132751	702.512024
898.157532	707.511841
897.182068	707.383911
896.206482	699.568420
895.230713	725.062439
894.254761	694.192139
893.278625	727.361267
892.302307	706.744324
891.325806	721.977661
890.349182	696.249634
889.372314	673.090088
888.395325	657.615417
887.418091	734.246948
886.440735	639.472168
885.463196	700.734619
884.485474	733.848267
883.507568	718.376404
882.529480	700.354065
881.551270	738.560913
880.572815	705.210693
879.594238	656.544678
878.615417	720.280396
877.636475	689.505249
876.657349	709.806458
875.677979	661.174744
874.698486	742.729675
873.718811	742.595093
872.739014	732.254944
871.758972	760.182678
870.778748	749.842957
869.798401	780.307373
868.817810	667.985229
867.837097	662.765930
866.856140	647.353943
865.875061	690.555603
864.893799	675.144104
863.912354	715.777771
862.930725	718.194763
861.948914	702.786560
860.966919	712.842590
859.984741	699.986267
859.002441	710.039063
858.019897	664.109619
857.037231	653.813049
856.054321	740.175415
855.071289	668.834412
854.088074	689.054138
853.104614	660.965210
852.121033	729.471497
851.137268	691.220337
850.153320	721.584412
849.169189	701.130798
848.184937	739.101501
847.200439	698.336853
846.215759	741.372131
845.230896	710.775696
844.245911	680.190369
843.260681	728.280579
842.275330	672.332031
841.289795	707.722900
840.304016	679.696411
839.318115	669.430054
838.332031	687.055298
837.345764	699.604431
836.359314	633.584534
835.372681	633.469421
834.385864	704.290039
833.398865	661.101746
832.411743	648.319153
831.424377	658.329468
830.436829	668.336060
829.449158	716.305786
828.461243	736.420837
827.473206	728.696350
826.484924	723.504395
825.496521	695.550842
824.507935	703.010803
823.519104	692.769531
822.530151	680.004028
821.541016	669.770630
820.551697	707.553467
819.562195	656.894409
818.572510	727.504517
817.582642	684.436951
816.592590	689.362732
815.602356	729.632141
814.611938	724.450928
813.621399	706.652771
812.630615	686.337769
811.639648	655.938721
810.648560	675.998352
809.657227	678.397217
808.665771	680.795227
807.674072	665.545227
806.682251	710.793884
805.690186	672.863098
804.697998	647.544312
803.705566	695.290588
802.713013	685.089111
801.720276	669.854797
800.727356	669.732788
799.734253	692.266785
798.740906	689.623779
797.747437	719.695129
796.753784	717.048035
795.759949	711.886353
794.765930	701.696472
793.771729	663.849854
792.777344	698.926575
791.782776	701.312866
790.788025	701.184998
789.793091	738.748413
788.798035	683.343323
787.802734	748.526367
786.807251	700.673767
785.811584	698.035034
784.815796	675.313599
783.819763	715.350464
782.823547	692.634094
781.827148	667.416870
780.830627	717.467651
779.833862	669.681519
778.836975	659.528503
777.839844	614.277527
776.842529	666.808228
775.845093	659.167480
774.847412	714.176575
773.849609	744.111328
772.851563	718.925842
771.853394	686.235962
770.854980	668.582275
769.856445	678.474609
768.857666	675.847595
767.858765	695.745605
766.859680	728.147522
765.860352	682.982666
764.860901	687.860535
763.861206	715.244324
762.861389	662.605286
761.861389	649.984558
760.861145	652.365295
759.860779	674.737305
758.860168	689.605469
757.859436	696.973755
756.858521	679.362793
755.857361	671.747009
754.856079	626.682861
753.854614	669.005188
752.852905	638.932922
751.851074	673.751343
750.848999	748.475708
749.846802	738.361023
748.844421	728.249939
747.841797	782.974915
746.839050	718.011230
745.836121	653.071289
744.832947	740.178223
743.829651	685.224854
742.826111	667.660583
741.822449	732.299622
740.818604	739.636719
739.814514	694.683105
738.810303	707.003235
737.805847	667.049927
736.801270	711.721497
735.796448	674.270020
734.791504	694.047607
733.786316	741.176758
732.781006	701.253662
731.775452	723.501587
730.769775	720.883301
729.763855	723.236633
728.757751	715.649475
727.751526	745.331665
726.745056	688.063538
725.738403	687.937500
724.731628	734.989868
723.724609	722.442139
722.717407	769.470886
721.710083	739.549377
720.702515	739.413879
719.694763	749.201538
718.686829	729.221497
717.678711	743.967163
716.670410	726.474731
715.661987	681.719910
714.653320	743.558105
713.644470	708.728760
712.635437	673.912170
711.626221	735.717651
710.616821	728.152649
709.607178	680.970215
708.597412	700.651733
707.587463	712.899963
706.577332	680.595581
705.567017	727.485046
704.556458	717.455627
703.545776	709.903442
702.534912	694.934692
701.523804	675.026184
700.512573	660.069275
699.501099	694.552124
698.489502	701.838440
697.477661	659.705872
696.465698	704.051147
695.453491	694.042297
694.441101	711.200989
693.428589	698.725464
692.415833	701.065674
691.402893	713.277344
690.389771	705.743469
689.376465	708.080994
688.362976	707.950928
687.349304	690.557007
686.335449	710.156677
685.321411	700.164734
684.307190	722.220337
683.292725	687.585144
682.278137	761.379089
681.263367	716.895142
680.248352	741.394409
679.233215	768.347290
678.217834	812.525635
677.202332	731.138611
676.186584	790.075256
675.170654	691.496338
674.154541	715.973083
673.138306	693.702026
672.121826	723.088257
671.105164	705.742004
670.088318	759.700928
669.071289	703.024292
668.054016	742.217773
667.036621	702.765625
666.019043	710.006653
665.001282	650.924377
663.983276	675.363220
662.965149	721.891846
661.946777	792.952881
660.928223	701.990051
659.909546	733.763611
658.890625	728.721313
657.871521	723.680847
656.852234	708.831360
655.832764	738.127869
654.813110	730.636536
653.793274	723.147949
652.773254	737.720154
651.752991	769.440063
650.732605	717.848450
649.711975	737.312561
648.691223	737.176758
647.670227	744.386841
646.649048	744.249695
645.627747	729.426147
644.606201	814.946777
643.584473	773.200378
642.562561	797.521729
641.540466	763.131653
640.518127	767.881897
639.495667	735.954956
638.473022	784.710876
637.450134	767.457275
636.427063	711.111145
635.403870	745.185181
634.380432	698.634949
633.356812	737.583374
632.333008	730.121704
631.309021	698.248474
630.284851	739.616272
629.260498	712.634033
628.235901	780.824707
627.211182	790.439148
626.186218	746.388062
625.161133	775.515076
624.135803	760.742310
623.110291	767.915344
622.084595	736.087708
621.058716	799.311890
620.032654	808.910278
619.006409	786.836670
617.979919	730.673096
616.953308	776.805603
615.926453	813.182312
614.899414	776.518738
613.872253	825.050842
612.844849	854.098389
611.817261	858.806396
610.789490	800.269409
609.761475	800.121582
608.733337	836.446716
607.705017	797.394836
606.676453	782.663696
605.647705	780.088867
604.618774	811.531250
603.589722	796.805542
602.560425	803.944702
601.530884	813.509644
600.501221	776.940186
599.471375	793.788940
598.441284	878.588562
597.411011	798.348572
596.380615	827.314697
595.349976	776.222107
594.319153	768.802795
593.288147	797.758118
592.256897	790.337524
591.225525	734.441589
590.193970	804.585815
589.162170	785.052917
588.130188	826.091064
587.098022	828.360291
586.065674	745.870605
585.033142	779.629456
584.000427	699.600037
582.967468	789.022156
581.934387	747.738342
580.901062	742.761047
579.867554	740.204590
578.833862	769.089783
577.799988	739.930481
576.765930	776.057800
575.731628	819.423279
574.697205	763.686707
573.662537	794.956909
572.627747	768.235413
571.592712	782.585449
570.557434	760.705994
569.522034	779.880920
568.486450	741.111694
567.450623	757.869568
566.414673	791.513184
565.378479	772.064819
564.342102	759.860413
563.305542	783.837646
562.268799	776.458252
561.231812	822.121643
560.194702	802.685486
559.157349	814.586731
558.119812	804.797363
557.082092	860.057983
556.044189	840.629028
555.006042	835.656616
553.967773	818.647095
552.929260	806.458557
551.890625	789.460632
550.851746	835.036621
549.812683	820.445679
548.773376	808.265686
547.733948	863.433105
546.694275	860.868164
545.654419	810.219910
544.614441	805.261963
543.574158	807.515747
542.533752	792.948608
541.493164	836.045044
540.452332	814.271973
539.411316	847.742249
538.370178	804.365173
537.328735	816.218994
536.287170	854.470581
535.245422	820.715332
534.203430	815.764221
533.161255	820.410400
532.118896	858.632568
531.076355	822.503479
530.033630	853.518433
528.990723	834.183167
527.947571	786.095459
526.904236	829.080750
525.860718	864.862732
524.817017	867.097229
523.773132	802.275085
522.729004	864.380432
521.684692	921.674744
520.640198	928.683899
519.595520	859.112122
518.550659	842.203979
517.505615	849.223877
516.460327	789.272522
515.414856	820.212463
514.369202	822.450684
513.323364	752.976074
512.277283	819.754700
511.231079	929.519653
510.184631	850.507446
509.138000	809.742615
508.091187	807.203735
507.044159	776.012939
505.996948	744.833740
504.949554	785.271362
503.901947	825.693970
502.854126	811.224487
501.806152	811.073425
500.757965	846.698364
499.709564	899.002319
