#Wave		#Intensity
3200.600830	8.419704
3200.007080	8.419704
3199.413086	-8.418432
3198.819092	4.208580
3198.224854	21.039719
3197.630615	12.621923
3197.036377	4.206672
3196.442139	4.206036
3195.847656	16.821600
3195.252930	0.000000
3194.658447	29.428900
3194.063721	16.813971
3193.468750	4.202857
3192.873779	-4.202222
3192.278809	12.604758
3191.683838	16.803802
3191.088623	4.200315
3190.493164	16.798721
3189.897949	16.796181
3189.302490	-8.396820
3188.706787	12.593325
3188.111328	8.394279
3187.515381	-4.196505
3186.919678	20.979351
3186.323730	20.976177
3185.727783	8.389201
3185.131592	16.775864
3184.535400	16.773325
3183.939209	-4.192697
3183.342773	0.000000
3182.746338	25.148569
3182.149902	4.190794
3181.553223	37.711437
3180.956543	12.568576
3180.359619	20.944456
3179.762695	25.129543
3179.165771	0.000000
3178.568604	33.495914
3177.971436	8.372710
3177.374268	0.000000
3176.776855	8.370175
3176.179443	25.106726
3175.581787	-8.367641
3174.984131	8.366374
3174.386475	8.365108
3173.788574	8.363840
3173.190674	16.725147
3172.592773	4.180654
3171.994629	29.260143
3171.396484	16.717548
3170.798340	12.536263
3170.199951	33.424969
3169.601563	12.532465
3169.002930	0.000000
3168.404297	16.704891
3167.805664	16.702360
3167.206787	20.874786
3166.607910	16.697298
3166.008789	12.521076
3165.409912	8.346119
3164.810547	4.172427
3164.211426	25.030769
3163.612061	16.684650
3163.012695	-4.170530
3162.413086	-4.169898
3161.813477	12.507798
3161.213623	29.180439
3160.614014	8.336004
3160.013916	-4.167370
3159.414063	8.333477
3158.813965	24.996641
3158.213867	8.330950
3157.613525	24.989061
3157.013184	16.656847
3156.412598	16.654322
3155.812256	8.325898
3155.211426	0.000000
3154.610840	4.161686
3154.010010	16.644220
3153.409180	0.000000
3152.808105	4.159793
3152.207031	4.159162
3151.605957	-8.317062
3151.004639	0.000000
3150.403320	8.314539
3149.801758	4.156639
3149.200195	12.468023
3148.598633	4.155377
3147.996826	8.309493
3147.395020	4.154116
3146.793213	0.000000
3146.191162	4.152855
3145.589111	-8.304450
3144.986816	0.000000
3144.384766	0.000000
3143.782227	24.902008
3143.179932	20.748522
3142.577393	16.596298
3141.974609	0.000000
3141.371826	8.295630
3140.769043	0.000000
3140.166260	0.000000
3139.563232	4.145926
3138.960205	-8.290592
3138.356934	-8.289333
3137.753662	-12.432112
3137.150391	12.430223
3136.546875	4.142778
3135.943359	0.000000
3135.339600	12.424561
3134.735840	12.422673
3134.132080	-4.140262
3133.528076	20.698164
3132.924072	24.834024
3132.320068	-4.138375
3131.715820	4.137746
3131.111572	0.000000
3130.507080	16.545956
3129.902588	-8.271721
3129.298096	12.405696
3128.693604	16.538414
3128.088867	-8.267950
3127.483887	24.800079
3126.878906	8.265437
3126.273926	24.792542
3125.668945	8.262924
3125.063721	-4.130834
3124.458252	8.260412
3123.853027	33.036625
3123.247559	-12.386850
3122.641846	20.641613
3122.036133	12.383084
3121.430420	20.635336
3120.824707	-4.126440
3120.218750	16.503248
3119.612549	8.250369
3119.006592	24.747341
3118.400391	20.619648
3117.793945	12.369907
3117.187500	0.000000
3116.581055	12.366144
3115.974609	4.121421
3115.367920	16.483175
3114.760986	-4.120167
3114.154297	8.239080
3113.547363	20.594566
3112.940186	4.118287
3112.333008	20.588299
3111.725830	12.351100
3111.118408	8.232813
3110.510986	12.347341
3109.903564	12.345461
3109.295898	4.114527
3108.688232	-4.113901
3108.080566	8.226550
3107.472656	-4.112648
3106.864746	20.560112
3106.256592	8.222793
3105.648438	24.664623
3105.040039	-8.220289
3104.431885	8.219038
3103.823486	24.653358
3103.214844	0.000000
3102.606201	0.000000
3101.997559	-4.107016
3101.388672	0.000000
3100.779785	-4.105765
3100.170898	12.315419
3099.561768	20.522572
3098.952637	4.103889
3098.343262	8.206528
3097.733887	4.102639
3097.124512	24.612083
3096.514893	12.304167
3095.905273	0.000000
3095.295410	20.500694
3094.685791	-8.199028
3094.075684	4.098889
3093.465820	16.393059
3092.855713	8.195280
3092.245361	12.291047
3091.635254	20.481956
3091.024658	16.383068
3090.414307	28.665997
3089.803711	4.094518
3089.193115	16.375576
3088.582275	20.466349
3087.971436	4.092646
3087.360596	-4.092022
3086.749512	20.456989
3086.138428	-12.272322
3085.527100	-4.090150
3084.915771	0.000000
3084.304443	28.622318
3083.692871	16.353115
3083.081299	32.701244
3082.469482	16.348127
3081.857910	8.172817
3081.245850	-4.085785
3080.634033	20.425810
3080.021973	4.084538
3079.409668	16.335661
3078.797607	12.249877
3078.185059	8.165339
3077.572754	16.328186
3076.960205	24.488541
3076.347656	20.404003
3075.734863	12.240533
3075.122070	12.238665
3074.509033	-20.394661
3073.895996	-4.078310
3073.282959	8.155375
3072.669922	0.000000
3072.056641	-16.305769
3071.443115	20.379101
3070.829834	-4.075198
3070.216064	4.074575
3069.602539	32.591629
3068.988770	0.000000
3068.375000	12.218128
3067.760986	0.000000
3067.146973	61.071983
3066.532715	12.212531
3065.918701	12.210666
3065.304199	24.417603
3064.689941	16.275915
3064.075439	8.136714
3063.460693	4.067736
3062.846191	20.335571
3062.231445	32.531944
3061.616455	-4.065872
3061.001465	40.652504
3060.386475	4.064629
3059.771240	12.192024
3059.156006	20.316936
3058.540771	16.251064
3057.925293	24.372871
3057.309814	20.307623
3056.694092	4.060904
3056.078369	8.120565
3055.462646	0.000000
3054.846680	24.354250
3054.230713	16.233685
3053.614502	12.173402
3052.998291	0.000000
3052.382080	12.169680
3051.765625	4.055940
3051.149170	24.331917
3050.532715	4.054699
3049.916016	16.216318
3049.299316	-24.320757
3048.682373	16.211357
3048.065430	20.261099
3047.448486	8.103200
3046.831299	16.203920
3046.214111	16.201441
3045.596680	12.149222
3044.979248	-12.147364
3044.361816	24.291010
3043.744141	40.478825
3043.126465	28.330841
3042.508545	32.373150
3041.890869	4.046024
3041.272705	8.090811
3040.654785	20.223930
3040.036621	12.132502
3039.418213	12.130645
3038.799805	32.343433
3038.181396	20.211552
3037.562988	28.291842
3036.944336	20.205364
3036.325439	32.323635
3035.706543	20.199179
3035.087646	24.235304
3034.468750	16.154396
3033.849609	16.151922
3033.230469	20.186810
3032.611084	28.257206
3031.991699	-4.036126
3031.372070	28.248552
3030.752441	16.139557
3030.132813	-4.034271
3029.513184	16.134615
3028.893066	0.000000
3028.273193	24.194508
3027.653076	28.222601
3027.032959	20.155912
3026.412598	8.061130
3025.792480	20.149736
3025.171875	16.117319
3024.551270	12.086137
3023.930664	8.056190
3023.310059	12.082433
3022.689209	16.107441
3022.068115	20.131216
3021.447266	28.179384
3020.826172	20.125046
3020.204834	12.073176
3019.583496	32.190201
3018.962158	4.023159
3018.340576	12.067625
3017.718994	28.153475
3017.097412	20.106541
3016.475586	8.041384
3015.853760	16.080301
3015.231689	4.019459
3014.609619	4.018842
3013.987549	20.091129
3013.365234	28.123268
3012.742920	36.152943
3012.120361	16.065510
3011.497803	0.000000
3010.875244	24.090872
3010.252441	0.000000
3009.629639	12.041740
3009.006836	8.026595
3008.383789	36.114136
3007.760498	28.084463
3007.137451	36.103054
3006.514160	32.086681
3005.890625	32.081757
3005.267090	20.048021
3004.643555	24.053932
3004.019775	16.033493
3003.395996	20.038792
3002.772217	28.050001
3002.148193	20.032640
3001.524170	28.041389
3000.899902	0.000000
3000.275635	12.014049
2999.651367	-4.004068
2999.026855	36.031082
2998.402344	4.002839
2997.777588	20.011120
2997.152832	20.008047
2996.528076	12.002985
2995.903076	12.001142
2995.278076	7.999532
2994.653076	-3.999152
2994.027832	0.000000
2993.402344	23.987539
2992.777100	27.981163
2992.151367	15.986779
2991.525879	0.000000
2990.900146	31.963736
2990.274414	43.943382
2989.648438	27.959675
2989.022461	19.968126
2988.396240	35.937107
2987.770264	3.992398
2987.143799	11.975353
2986.517578	27.938196
2985.891113	23.943346
2985.264404	3.989944
2984.637695	27.925316
2984.010986	19.943588
2983.384033	35.892941
2982.757080	31.899929
2982.130127	27.908148
2981.502930	15.945061
2980.875732	31.885218
2980.248291	19.925198
2979.620850	23.906559
2978.993408	11.951442
2978.365723	15.932804
2977.738037	35.843296
2977.110107	11.945928
2976.482178	23.888182
2975.854248	23.884506
2975.226074	23.880833
2974.597900	39.795265
2973.969482	15.915656
2973.341309	39.783020
2972.712646	3.977690
2972.083984	27.839544
2971.455322	27.835260
2970.826660	39.758537
2970.197754	39.752422
2969.568604	11.923891
2968.939697	35.766167
2968.310547	31.787254
2967.681152	15.891181
2967.051758	0.000000
2966.422363	39.715721
2965.792725	27.796726
2965.163086	27.792446
2964.533203	43.667122
2963.903564	7.938254
2963.273438	19.842579
2962.643311	39.679047
2962.013184	19.836470
2961.383057	27.766779
2960.752686	31.728575
2960.122314	15.861844
2959.491699	23.789103
2958.861084	39.642395
2958.230225	19.818144
2957.599609	47.556221
2956.968506	43.586487
2956.337646	47.541569
2955.706299	27.728310
2955.075195	39.605766
2954.443848	39.599663
2953.812500	31.674849
2953.180908	31.669968
2952.549316	35.623222
2951.917725	35.617733
2951.285889	43.526077
2950.653809	47.475674
2950.021973	31.645571
2949.389893	55.371212
2948.757568	43.499245
2948.125244	39.538673
2947.492920	31.626060
2946.860352	35.573833
2946.227783	51.376503
2945.595215	63.222870
2944.962402	63.213120
2944.329590	59.253162
2943.696533	71.092827
2943.063477	55.285896
2942.430420	78.967667
2941.797119	71.059937
2941.163574	63.154648
2940.530273	71.038017
2939.896729	142.054123
2939.262939	86.797462
2938.629150	82.839340
2937.995361	130.156021
2937.361328	130.135941
2936.727295	141.944565
2936.093262	126.153481
2935.458984	185.259338
2934.824707	149.761032
2934.190186	141.856964
2933.555664	161.534393
2932.921143	177.266479
2932.286377	192.993713
2931.651367	157.521561
2931.016602	177.184402
2930.381592	192.904343
2929.746338	181.065918
2929.111084	192.844788
2928.475830	169.205002
2927.840332	188.850845
2927.204834	216.358170
2926.569336	188.792526
2925.933594	184.830795
2925.297607	200.530106
2924.661865	196.567764
2924.025879	200.468155
2923.389648	227.948181
2922.753418	176.829025
2922.117188	223.948837
2921.480713	196.416000
2920.844238	200.313370
2920.207764	172.792679
2919.571045	227.736969
2918.934082	204.146423
2918.297363	192.339020
2917.660156	204.083328
2917.023193	207.975861
2916.385986	204.020248
2915.748779	207.911575
2915.111328	180.423676
2914.473877	211.768967
2913.836182	243.104553
2913.198486	246.987411
2912.560791	203.831100
2911.922852	203.799591
2911.284912	199.849472
2910.646729	254.670715
2910.008545	246.796524
2909.370361	231.091171
2908.731934	262.384979
2908.093506	246.682053
2907.455078	238.813934
2906.816406	262.263245
2906.177490	336.584351
2905.538574	297.400635
2904.899658	269.966705
2904.260498	277.748840
2903.621338	293.351288
2902.982178	328.502594
2902.342773	304.990936
2901.703369	273.667450
2901.063721	359.621582
2900.424072	332.207642
2899.784424	324.340790
2899.144531	336.011932
2898.504639	359.399017
2897.864502	367.155182
2897.224365	413.961975
2896.583984	378.755615
2895.943848	382.601074
2895.303223	370.831390
2894.662842	370.773987
2894.021973	343.400604
2893.381348	456.496033
2892.740479	409.612488
2892.099609	351.042053
2891.458496	401.685913
2890.817383	413.321503
2890.176025	389.865540
2889.534668	362.518799
2888.893311	448.206512
2888.251709	440.343384
2887.610107	432.482697
2886.968262	397.354980
2886.326416	432.348724
2885.684570	486.803741
2885.042480	467.259186
2884.400391	517.798706
2883.758057	615.033997
2883.115723	622.722717
2882.473389	684.888794
2881.830811	743.144836
2881.188232	770.261108
2880.545410	875.161072
2879.902588	991.695496
2879.259766	940.992554
2878.616699	979.724670
2877.973633	948.475220
2877.330322	804.524292
2876.687012	726.679810
2876.043457	722.681763
2875.399902	668.182739
2874.756348	543.785339
2874.112549	508.748810
2873.468750	520.318848
2872.824707	512.473389
2872.180664	411.467834
2871.536621	465.740417
2870.892334	450.145905
2870.248047	411.276398
2869.603760	430.609436
2868.958984	418.906342
2868.314453	387.816071
2867.669678	364.490540
2867.024902	422.588348
2866.379883	344.995667
2865.734863	368.196655
2865.089844	375.889832
2864.444580	395.204254
2863.799316	410.638702
2863.153809	402.828278
2862.508301	391.147522
2861.862549	433.680420
2861.216797	398.769196
2860.571045	387.094452
2859.925049	417.997101
2859.279053	445.020386
2858.632813	429.474731
2857.986572	437.145142
2857.340332	464.152832
2856.693848	456.346100
2856.047363	487.209137
2855.400635	595.385376
2854.753906	556.637512
2854.107178	572.010803
2853.460205	533.278564
2852.813232	567.969360
2852.166016	610.375671
2851.518799	598.693237
2850.871338	633.357666
2850.223877	644.843262
2849.576416	725.818542
2848.928711	772.027405
2848.281006	694.716675
2847.633301	837.389404
2846.985352	829.542603
2846.337158	837.129150
2845.688965	813.856201
2845.040771	840.725525
2844.392578	825.171082
2843.743896	871.306885
2843.095459	840.333496
2842.446777	828.640442
2841.798096	820.804504
2841.149170	816.823975
2840.500244	712.683655
2839.851074	647.093201
2839.202148	596.927673
2838.552734	562.179932
2837.903320	535.142822
2837.253906	500.415466
2836.604492	442.606384
2835.954834	438.689392
2835.304932	392.450500
2834.655029	346.225983
2834.005127	346.172119
2833.354980	292.277649
2832.704834	246.090256
2832.054688	272.963898
2831.404297	246.013672
2830.753906	188.324921
2830.103271	203.666672
2829.452637	192.108475
2828.801758	161.346008
2828.150879	157.479919
2827.500000	115.211273
2826.848877	126.712677
2826.197754	142.049667
2825.546387	99.803154
2824.895020	103.625595
2824.243408	130.471176
2823.591797	69.062225
2822.940186	95.904816
2822.288330	76.711906
2821.636475	88.204956
2820.984619	53.681614
2820.332520	80.509880
2819.680176	53.664894
2819.028076	95.815239
2818.375488	68.976227
2817.723145	88.122566
2817.070557	45.969830
2816.417725	68.944000
2815.764893	61.274010
2815.112061	61.264462
2814.458984	53.598053
2813.805908	65.073212
2813.152832	61.235828
2812.499512	68.879570
2811.845947	68.868835
2811.192383	42.079952
2810.538818	49.723103
2809.885010	42.066837
2809.231201	30.589294
2808.577393	26.761461
2807.923340	49.692108
2807.269287	45.862488
2806.614990	57.319172
2805.960693	53.489552
2805.306152	61.121384
2804.651611	22.916946
2803.997070	53.464535
2803.342285	42.001297
2802.687500	30.541636
2802.032471	41.988197
2801.377441	57.247704
2800.722412	38.159184
2800.067139	57.229847
2799.411621	26.703094
2798.756348	49.583725
2798.100586	49.575993
2797.445068	45.755314
2796.789307	49.560524
2796.133301	53.364544
2795.477539	15.244633
2794.821289	22.863380
2794.165283	53.339565
2793.509033	45.712490
2792.852539	49.514137
2792.196045	38.081852
2791.539551	26.653135
2790.882813	45.683956
2790.226074	49.483227
2789.569092	57.087116
2788.912109	30.441710
2788.255127	34.241577
2787.597900	15.216103
2786.940430	38.034317
2786.283203	34.225540
2785.625488	49.429169
2784.968018	53.223099
2784.310303	49.413731
2783.652588	49.406013
2782.994629	41.798557
2782.336426	49.390579
2781.678467	30.389456
2781.020264	30.384706
2780.361816	37.974949
2779.703369	22.781410
2779.044922	37.963085
2778.386230	30.365723
2777.727539	30.360977
2777.068604	30.356234
2776.409668	49.321171
2775.750732	37.933434
2775.091553	30.342003
2774.432373	30.337259
2773.772949	41.707211
2773.113525	53.073608
2772.453857	41.694172
2771.794189	37.897869
2771.134521	34.102749
2770.474609	56.829029
2769.814697	41.668106
2769.154541	30.299337
2768.494385	45.441898
2767.833984	56.793491
2767.173584	45.427689
2766.513184	45.420582
2765.852539	37.844566
2765.191895	45.406376
2764.531006	45.399273
2763.870117	30.261446
2763.209229	49.167156
2762.548096	-3.781497
2761.886719	45.370869
2761.225586	41.583454
2760.563965	30.237780
2759.902588	34.012180
2759.240967	56.678097
2758.579102	41.557430
2757.917236	37.773571
2757.255371	45.321190
2756.593262	30.209398
2755.931152	33.980251
2755.269043	45.299911
2754.606689	45.292820
2753.944092	49.059540
2753.281494	45.278637
2752.618896	49.044178
2751.956055	22.632231
2751.293213	41.485924
2750.630371	37.708572
2749.967285	41.472931
2749.303955	33.927086
2748.640625	45.229027
2747.977295	41.453449
2747.313721	48.982765
2746.650146	52.742405
2745.986572	37.667244
2745.322754	52.725883
2744.658691	52.717621
2743.994873	45.179451
2743.330566	37.643646
2742.666504	48.929070
2742.002197	41.395031
2741.337646	67.726707
2740.673096	48.906071
2740.008545	67.705482
2739.343750	75.216522
2738.678955	56.403549
2738.013916	45.115768
2737.348877	37.590580
2736.683594	45.101624
2736.018311	52.610310
2735.353027	63.873932
2734.687500	45.080410
2734.021973	48.829456
2733.356201	52.577320
2732.690430	52.569077
2732.024658	67.578209
2731.358643	75.075127
2730.692383	82.569687
2730.026367	90.061890
2729.359863	101.303734
2728.693604	90.033638
2728.027100	86.268700
2727.360352	105.006287
2726.693604	97.490540
2726.026855	93.726196
2725.359863	82.466110
2724.692871	93.696785
2724.025635	116.165779
2723.358398	142.374405
2722.691162	134.859848
2722.023682	86.146942
2721.355957	108.603004
2720.688477	93.608582
2720.020508	86.106377
2719.352783	123.524536
2718.684814	127.247726
2718.016602	123.485756
2717.348389	119.724960
2716.680176	127.187798
2716.011719	82.285065
2715.343262	93.491066
2714.674561	104.693550
2714.005859	93.461708
2713.337158	97.184906
2712.668213	74.745880
2711.999023	82.207550
2711.329834	93.402992
2710.660645	100.859390
2709.991455	97.108597
2709.321777	85.890259
2708.652344	108.279404
2707.982666	89.596458
2707.312988	89.582382
2706.643066	100.764343
2705.972900	100.748505
2705.302979	85.809311
2704.632813	59.684052
2703.962402	63.404339
2703.291992	67.123451
2702.621582	74.569893
2701.950928	63.374443
2701.280273	82.001091
2700.609375	55.901043
2699.938477	55.892254
2699.267334	70.785721
2698.596191	67.049614
2697.925049	70.763466
2697.253662	78.199951
2696.582031	70.741203
2695.910645	44.671631
2695.239014	33.498451
2694.567139	59.543438
2693.895264	40.929672
2693.223145	52.084118
2692.551270	55.795631
2691.878906	70.663345
2691.206543	59.496613
2690.534180	78.077019
2689.861816	52.043156
2689.189209	74.335663
2688.516357	52.026775
2687.843506	40.871746
2687.170654	66.870514
2686.497559	66.859993
2685.824463	40.852451
2685.151123	77.978767
2684.477783	33.414211
2683.804199	37.121056
2683.130615	29.692169
2682.457031	55.664051
2681.783203	37.103523
2681.109375	48.226986
2680.435303	51.928574
2679.761230	63.046196
2679.086914	48.204205
2678.412598	29.659454
2677.738281	29.654781
2677.063721	40.768902
2676.389160	66.702240
2675.714355	51.871349
2675.039551	40.749638
2674.364502	37.039288
2673.689453	62.956871
2673.014404	55.541428
2672.339111	33.319603
2671.663574	14.806379
2670.988037	44.412140
2670.312500	25.902998
2669.636719	48.097984
2668.960938	33.293358
2668.285156	40.685467
2667.609131	44.377148
2666.932861	40.672642
2666.256592	33.272369
2665.580322	18.481735
2664.903809	55.436462
2664.227295	59.122902
2663.550781	22.167593
2662.874023	29.552130
2662.197021	33.240902
2661.520020	66.471321
2660.843018	36.922688
2660.165771	44.300236
2659.488525	40.602142
2658.811035	29.524174
2658.133545	44.279274
2657.455811	55.340359
2656.778076	59.020405
2656.100342	44.258320
2655.422363	59.001781
2654.744385	44.244354
2654.066162	36.864475
2653.387939	51.602123
2652.709473	62.649830
2652.031006	44.216431
2651.352539	25.788845
2650.673828	29.468315
2649.994873	44.195496
2649.316162	81.012283
2648.636963	29.454361
2647.958008	36.812138
2647.278809	55.209488
2646.599365	58.880821
2645.919922	77.268875
2645.240479	25.752224
2644.560791	66.209549
2643.880859	44.132729
2643.201172	55.157196
2642.520996	55.148483
2641.841064	47.787804
2641.160889	55.131065
2640.480469	51.447529
2639.800049	40.416672
2639.119629	44.083950
2638.438965	47.750069
2637.758301	51.415024
2637.077393	47.734978
2636.396484	33.042068
2635.715332	44.049129
2635.034180	18.350904
2634.353027	14.678403
2633.671631	33.021187
2632.989990	40.352848
2632.308350	29.342886
2631.626709	44.007370
2630.944824	33.000309
2630.262939	18.330606
2629.581055	21.993252
2628.898926	43.979546
2628.216553	29.315062
2627.534180	40.301834
2626.851807	29.305790
2626.169189	36.626446
2625.486572	62.255108
2624.803711	47.599316
2624.120850	36.609066
2623.437988	47.584259
2622.754883	18.298742
2622.071533	43.910034
2621.388184	25.610134
2620.704834	29.264093
2620.021240	43.889194
2619.337646	40.225395
2618.653809	43.875305
2617.969971	51.179756
2617.286133	47.516537
2616.602051	40.199936
2615.917725	36.539612
2615.233398	32.880447
2614.549072	29.222437
2613.864502	47.478939
2613.179932	36.516479
2612.495117	36.510700
2611.810303	25.553442
2611.125488	40.149052
2610.440430	18.246679
2609.755127	36.487579
2609.069824	62.019058
2608.384521	32.828419
2607.698975	36.470245
2607.013428	43.757362
2606.327637	47.396297
2605.641846	43.743500
2604.956055	21.868284
2604.270020	29.153093
2603.583740	54.653389
2602.897461	61.930695
2602.211182	32.781643
2601.524658	25.492792
2600.838135	21.847502
2600.151367	47.328754
2599.464600	32.760868
2598.777832	47.313751
2598.090820	36.389423
2597.403564	25.468559
2596.716309	36.377888
2596.029053	29.097696
2595.341553	43.639626
2594.654053	43.632706
2593.966309	29.083858
2593.278564	54.523586
2592.590820	50.880611
2591.902832	29.070024
2591.214600	50.864475
2590.526367	21.795603
2589.838135	47.216316
2589.149658	36.314484
2588.461182	43.570465
2587.772461	61.715034
2587.083740	61.705242
2586.394775	43.549732
2585.705811	36.285686
2585.016846	43.535912
2584.327637	61.666092
2583.638184	47.148937
2582.948975	43.515190
2582.259277	43.508286
2581.569824	32.626034
2580.879883	28.996315
2580.190186	18.119822
2579.500244	18.116943
2578.810059	18.114069
2578.119873	36.222385
2577.429688	32.594971
2576.739258	50.695236
2576.048584	43.446159
2575.358154	39.819324
2574.667236	0.000000
2573.976563	39.806675
2573.285645	18.091070
2572.594482	28.941114
2571.903320	43.404778
2571.212158	43.397881
2570.520752	36.159157
2569.829102	39.768753
2569.137451	32.532902
2568.445801	25.299347
2567.753906	21.681709
2567.062012	18.065220
2566.370117	46.962109
2565.677979	43.342751
2564.985596	28.890574
2564.293213	25.275234
2563.600830	7.220348
2562.908203	28.876801
2562.215332	32.481236
2561.522705	10.825357
2560.829590	25.255152
2560.136719	25.251137
2559.443604	32.460587
2558.750244	46.880058
2558.056885	36.055847
2557.363525	28.840092
2556.669922	39.648819
2555.976074	25.227055
2555.282227	28.826334
2554.588379	10.808156
2553.894287	21.612873
2553.200195	39.617298
2552.505859	25.206997
2551.811523	7.200853
2551.117188	25.198977
2550.422607	28.794249
2549.727783	14.394833
2549.032959	35.981358
2548.338135	14.390252
2547.643066	39.566895
2546.947998	3.596418
2546.252686	21.575073
2545.557373	7.190547
2544.861816	28.757607
2544.166260	32.347157
2543.470703	7.187113
2542.774902	32.336861
2542.078857	28.739298
2541.382813	3.591840
2540.686768	21.547611
2539.990479	14.362786
2539.294189	14.360498
2538.597656	32.305977
2537.901123	32.300831
2537.204346	14.353639
2536.507568	17.939190
2535.810791	28.698132
2535.113770	32.280254
2534.416504	14.344494
2533.719238	32.269970
2533.021973	35.849808
2532.324463	28.675278
2531.626953	28.670708
2530.929199	39.415943
2530.231445	17.913483
2529.533447	32.239128
2528.835449	7.163109
2528.137451	28.647869
2527.439209	28.643303
2526.740723	25.058893
2526.042236	25.054899
2525.343750	42.944408
2524.645020	28.625040
2523.946289	28.620478
2523.247314	42.923870
2522.548340	32.187767
2521.849121	42.910179
2521.149902	39.328060
2520.450684	25.022955
2519.751221	25.018965
2519.051514	32.162109
2518.351807	21.437986
2517.652100	17.862139
2516.952148	39.290436
2516.252197	35.712879
2515.552002	32.136463
2514.851807	21.420889
2514.151367	28.556629
2513.450928	21.414053
2512.750244	21.410637
2512.049561	35.678699
2511.348877	35.673004
2510.647949	28.533848
2509.946777	14.264647
2509.245605	28.524740
2508.544434	21.390139
2507.843018	28.515633
2507.141602	24.947195
2506.439941	17.816580
2505.738281	21.376482
2505.036377	21.373068
2504.334473	14.246437
2503.632568	24.927282
2502.930420	32.044243
2502.228027	28.479223
2501.525635	32.034008
2500.823242	28.470125
2500.120605	39.140171
2499.417969	17.788143
2498.715088	35.570602
2498.012207	39.121414
2497.309082	39.115162
2496.605957	28.442844
2495.902588	35.547874
2495.199219	42.650631
2494.495605	39.090164
2493.791992	46.190083
2493.088379	21.315092
2492.384521	42.623371
2491.680664	31.962418
2490.976563	28.406496
2490.272461	17.751223
2489.568115	35.496769
2488.863770	24.843765
2488.159180	21.291250
2487.454590	21.287846
2486.749756	21.284441
2486.044922	28.374716
2485.339844	35.462723
2484.634766	53.185577
2483.929688	17.725689
2483.224365	42.534851
2482.519043	31.896034
2481.813477	21.260622
2481.107666	31.885830
2480.402100	35.423031
2479.696045	35.417362
2478.990234	0.000000
2478.284180	21.243618
2477.577881	38.940399
2476.871582	42.473637
2476.165039	28.311226
2475.458496	28.306694
2474.751953	17.688852
2474.045166	28.297632
2473.338379	17.683189
2472.631348	28.288572
2471.924072	35.355057
2471.217041	42.419273
2470.509521	17.671867
2469.802246	31.804266
2469.094482	28.265932
2468.386963	28.261406
2467.679199	7.064219
2466.971191	17.657721
2466.263184	7.061957
2465.554932	38.834541
2464.846680	17.649237
2464.138428	21.175692
2463.429932	21.172298
2462.721436	14.112604
2462.012695	49.386200
2461.303955	42.324245
2460.594971	17.632277
2459.885986	17.629450
2459.176758	14.101300
2458.467529	14.099040
2457.758057	17.620975
2457.048584	49.330822
2456.338867	35.230652
2455.629150	24.657503
2454.919434	24.653549
2454.209473	28.170967
2453.499512	21.124838
2452.789307	31.682177
2452.078857	17.598387
2451.368408	7.038226
2450.657959	17.592743
2449.947266	31.661858
2449.236572	52.761299
2448.525879	28.134846
2447.814697	28.130333
2447.103760	42.188728
2446.392578	28.121307
2445.681152	24.602196
2444.969727	35.140354
2444.258301	38.648190
2443.546631	21.077448
2442.834717	42.148129
2442.122803	35.117805
2441.410889	14.044868
2440.698730	21.063919
2439.986572	49.141258
2439.274170	45.623844
2438.561768	42.107555
2437.849121	24.558798
2437.136475	14.031345
2436.423584	28.058186
2435.710693	21.040260
2434.997803	24.543028
2434.284424	7.011168
2433.571289	35.050209
2432.857910	14.017832
2432.144287	31.535057
2431.430908	28.026659
2430.717041	59.547085
2430.003174	52.533104
2429.289307	52.524666
2428.575195	28.008654
2427.861084	7.001039
2427.146729	38.499523
2426.432373	27.995155
2425.717773	27.990656
2425.003174	55.972317
2424.288330	52.465614
2423.573486	45.462891
2422.858643	52.448750
2422.143555	27.968170
2421.428223	20.972755
2420.712891	27.959179
2419.997559	31.449020
2419.281982	34.937737
2418.566162	45.411755
2417.850586	27.941202
2417.134521	34.920887
2416.418457	27.932217
2415.702393	52.364483
2414.986084	20.942425
2414.269775	41.878113
2413.553223	34.892815
2412.836670	20.932322
2412.120117	31.393431
2411.403076	13.950391
2410.686279	20.922220
2409.969238	34.864758
2409.251953	45.316891
2408.534668	17.426769
2407.817383	45.302307
2407.099854	13.936928
2406.382080	20.902027
2405.664307	45.280437
2404.946533	34.825500
2404.228516	45.265862
2403.510498	17.407145
2402.792236	13.923473
2402.073975	31.322771
2401.355469	41.756969
2400.636963	52.187809
2399.918213	31.307644
2399.199463	38.258736
2398.480469	31.297562
2397.761475	31.292521
2397.042480	34.763866
2396.323242	27.806614
2395.603760	27.802135
2394.884277	27.797657
2394.164795	45.163914
2393.445068	24.315113
2392.725098	17.365141
2392.005127	24.307280
2391.285156	34.719090
2390.564941	41.656193
2389.844727	10.412370
2389.124268	34.702305
2388.403809	31.227041
2387.683105	17.345560
2386.962402	34.685528
2386.241455	41.615925
2385.520508	41.609219
2384.799316	10.400627
2384.078125	38.129486
2383.356689	24.260305
2382.635254	41.582390
2381.913818	27.717123
2381.192139	41.568977
2380.470215	34.635231
2379.748291	34.629642
2379.026367	13.849623
2378.304199	20.771084
2377.581787	24.229023
2376.859375	31.146574
2376.136963	34.601723
2375.414307	31.136526
2374.691650	10.377168
2373.968750	20.750986
2373.245850	31.121456
2372.522705	6.914763
2371.799316	41.481884
2371.076172	27.650126
2370.352783	24.189955
2369.629150	34.551498
2368.905518	24.182146
2368.181641	27.632277
2367.457764	34.534771
2366.733643	20.717516
2366.009521	51.785431
2365.285400	44.873459
2364.561035	20.707483
2363.836426	13.802759
2363.111816	10.350398
2362.387207	34.495754
2361.662354	24.143127
2360.937256	48.278458
2360.212158	44.822754
2359.487061	17.236736
2358.761719	31.021112
2358.036377	41.354801
2357.310791	34.456764
2356.584961	20.670719
2355.859375	37.890194
2355.133301	34.440063
2354.407471	20.660700
2353.681152	30.986040
2352.955078	34.423370
2352.228516	20.650684
2351.502197	48.177139
2350.775635	17.203341
2350.048828	20.640671
2349.322021	34.395557
2348.594971	13.755998
2347.867920	58.453537
2347.140869	30.940987
2346.413330	34.373314
2345.686035	30.930981
2344.958496	20.617319
2344.230713	41.227970
2343.502930	30.915976
2342.775146	30.910975
2342.047119	27.471977
2341.319092	24.034092
2340.590820	17.164431
2339.862305	20.593985
2339.133789	13.727101
2338.405273	30.880981
2337.676514	10.291994
2336.947754	30.870987
2336.218750	41.154655
2335.489746	37.718994
2334.760498	34.284443
2334.031250	54.846233
2333.301758	0.000000
2332.572266	17.133900
2331.842529	23.983576
2331.112793	37.682373
2330.382813	41.101387
2329.652832	23.971928
2328.922607	30.816059
2328.192383	23.964165
2327.462158	20.537386
2326.731689	30.801088
2326.000977	13.687156
2325.270264	20.527409
2324.539307	27.365444
2323.808350	27.361012
2323.077393	6.839145
2322.346191	17.095091
2321.614746	13.673857
2320.883301	27.343283
2320.151855	34.173565
2319.420166	34.168026
2318.688232	40.994987
2317.956299	27.325562
2317.224365	23.905993
2316.492188	44.389645
2315.760010	6.828069
2315.027588	27.307850
2314.295166	40.955132
2313.562500	27.298996
2312.829590	23.882748
2312.096924	34.112679
2311.363770	20.464289
2310.630615	27.281294
2309.897461	23.867260
2309.164063	30.681501
2308.430664	37.493530
2307.697021	23.855648
2306.963379	40.888763
2306.229492	23.847910
2305.495605	30.656624
2304.761719	34.057388
2304.027344	20.431118
2303.293213	27.237070
2302.558838	30.636732
2301.824219	51.052933
2301.089600	23.820835
2300.354736	40.829090
2299.619873	37.420593
2298.885010	6.802640
2298.149658	34.007679
2297.414551	30.601940
2296.679199	20.397982
2295.943604	33.991116
2295.208008	33.985600
2294.472412	20.388048
2293.736572	20.384737
2293.000488	20.381428
2292.264404	27.170822
2291.528320	27.166410
2290.791992	16.976248
2290.055420	20.368189
2289.318848	23.759027
2288.582275	30.542358
2287.845459	30.537395
2287.108398	33.924927
2286.371582	30.527473
2285.634277	50.870857
2284.896973	13.563357
2284.159668	44.073750
2283.422119	33.897373
2282.684570	20.335119
2281.946777	37.274990
2281.208740	30.492764
2280.470703	67.750679
2279.732666	23.708883
2278.994385	44.023624
2278.256104	30.472939
2277.517578	33.853317
2276.779053	33.847813
2276.040283	13.536923
2275.301514	33.836803
2274.562500	23.681911
2273.823486	33.825798
2273.084229	57.494507
2272.344971	27.051836
2271.605469	54.094872
2270.865967	27.043036
2270.126221	10.139489
2269.386475	37.172077
2268.646484	27.029839
2267.906494	47.294521
2267.166260	50.664455
2266.426025	30.393726
2265.685547	33.765312
2264.945068	27.007853
2264.204346	27.003456
2263.463623	40.498592
2262.722656	43.866333
2261.981689	26.990273
2261.240723	43.852051
2260.499268	23.608799
2259.758057	37.093502
2259.016602	23.601110
2258.274902	33.710384
2257.533203	30.334404
2256.791260	47.179165
2256.049316	33.693916
2255.307129	33.688427
2254.564941	37.051235
2253.822754	40.412945
2253.080322	33.671967
2252.337646	26.933186
2251.594971	33.660995
2250.852051	43.752167
2250.109131	33.650028
2249.366211	50.466816
2248.623047	23.547342
2247.879639	36.996937
2247.136230	26.902479
2246.392578	16.811308
2245.648926	47.063992
2244.905273	43.695152
2244.161377	60.491119
2243.417236	16.800348
2242.673096	53.752350
2241.928955	20.153845
2241.184570	20.150558
2240.439941	13.431516
2239.695313	26.858650
2238.950439	46.994972
2238.205566	30.206125
2237.460693	16.778444
2236.715576	20.130848
2235.970215	36.900536
2235.224854	53.664749
2234.479492	30.181498
2233.733887	46.941334
2232.988037	13.409621
2232.242188	46.926018
2231.496338	20.107868
2230.750244	16.753822
2230.003906	20.101307
2229.257568	30.147038
2228.511230	56.935108
2227.764648	23.440042
2227.017822	26.784246
2226.270996	30.127357
2225.523926	36.816315
2224.776855	53.542259
2224.029785	33.458450
2223.282471	30.107687
2222.534912	40.137028
2221.787354	43.474678
2221.039795	40.123917
2220.291992	16.715569
2219.543945	40.110813
2218.795898	40.104259
2218.047852	26.731806
2217.299561	40.091156
2216.551025	10.021152
2215.802490	60.117088
2215.053955	33.392925
2214.305176	56.758698
2213.556152	26.705610
2212.807129	40.051868
2212.058105	10.011331
2211.308838	20.019388
2210.559326	46.704273
2209.809814	23.348318
2209.060303	20.009573
2208.310547	33.343838
2207.560547	-3.333838
2206.810547	19.999760
2206.060303	46.658478
2205.310059	13.328814
2204.559814	16.658293
2203.809326	43.304478
2203.058594	39.966824
2202.307861	46.620335
2201.557129	43.283230
2200.806152	53.262955
2200.054932	39.940681
2199.303711	46.589840
2198.552246	36.600311
2197.800781	33.267567
2197.049316	46.566975
2196.297607	39.908016
2195.545654	46.551735
2194.793701	36.570377
2194.041504	26.592283
2193.289307	43.205387
2192.537109	29.906527
2191.784668	63.125668
2191.031982	36.540455
2190.279297	53.141052
2189.526367	13.283088
2188.773438	46.483196
2188.020508	36.516529
2187.267090	49.787113
2186.513916	46.460361
2185.760498	43.134701
2185.006836	49.762657
2184.253174	59.705406
2183.499268	39.797085
2182.745361	43.106445
2181.991211	43.099384
2181.237061	76.240265
2180.482666	59.656517
2179.728271	59.646744
2178.973877	53.010639
2178.218994	29.813599
2177.464355	62.929504
2176.709229	36.426899
2175.954346	59.597881
2175.198975	26.483606
2174.443848	26.479265
2173.688232	49.640484
2172.932861	26.470585
2172.177002	33.082806
2171.421387	29.769644
2170.665283	49.607937
2169.909424	33.066536
2169.153076	26.448889
2168.396729	39.666828
2167.640381	33.050270
2166.883789	52.871758
2166.127197	46.255199
2165.370361	49.551010
2164.613525	29.725729
2163.856445	36.325485
2163.099365	36.319527
2162.342041	39.614799
2161.584473	33.006916
2160.826904	46.202103
2160.069336	46.194519
2159.311523	36.289738
2158.553711	36.283779
2157.795654	29.681856
2157.037354	49.461643
2156.279053	23.078310
2155.520752	46.149044
2154.762207	36.254009
2154.003662	62.610279
2153.244873	52.715790
2152.485840	49.412937
2151.726807	26.349239
2150.967773	42.810482
2150.208252	19.755440
2149.448975	26.336258
2148.689453	39.497898
2147.929688	23.036657
2147.169922	36.194515
2146.410156	26.318958
2145.650146	26.314634
2144.889893	32.887890
2144.129639	52.611977
2143.369141	39.452496
2142.608643	9.861504
2141.847900	23.006393
2141.087158	39.433048
2140.326416	29.569925
2139.565186	45.990101
2138.804199	42.698074
2138.042725	19.703564
2137.281494	22.983711
2136.519775	29.545628
2135.758301	32.823078
2134.996338	26.254145
2134.234619	36.093513
2133.472412	42.648956
2132.710449	39.361794
2131.947998	42.634926
2131.185547	32.790703
2130.423096	36.063843
2129.660400	39.335899
2128.897705	39.329430
2128.134766	49.153698
2127.371826	81.909355
2126.608643	32.758350
2125.845215	42.578846
2125.081787	42.571842
2124.318359	42.564835
2123.554688	39.284149
2122.790771	52.370247
2122.026855	35.998619
2121.262939	29.448566
2120.498779	26.172194
2119.734375	29.438871
2118.969971	22.893129
2118.205322	29.429178
2117.440674	26.154963
2116.676025	45.763645
2115.911133	26.146349
2115.145996	45.748573
2114.380859	32.672173
2113.615479	45.733505
2112.850098	39.193691
2112.084473	35.921631
2111.318848	26.120520
2110.552979	52.232430
2109.787109	29.375902
2109.020996	39.161415
2108.254883	35.892048
2107.488525	48.935638
2106.722168	42.403896
2105.955566	19.567804
2105.188965	26.086105
2104.422119	32.602257
2103.655029	52.155010
2102.887939	61.923866
2102.120850	58.655045
2101.353516	42.354992
2100.585938	42.348011
2099.818359	45.598030
2099.050781	45.590511
2098.282959	42.327065
2097.514893	35.809299
2096.746826	55.332520
2095.978760	35.797489
2095.210449	35.791584
2094.441895	65.064873
2093.673340	65.054138
2092.904541	58.539066
2092.135742	58.529408
2091.366699	39.013168
2090.597656	45.507851
2089.828369	13.000098
2089.059082	48.742321
2088.289551	29.240566
2087.520020	29.235741
2086.750244	19.487276
2085.980469	16.236717
2085.210449	45.455303
2084.440186	42.201527
2083.670166	32.457352
2082.899658	42.187592
2082.129150	32.446636
2081.358643	25.953022
2080.587891	9.730776
2079.816895	45.402790
2079.045898	45.395290
2078.274902	19.451912
2077.503662	38.897396
2076.732178	29.168228
2075.960693	38.884548
2075.188965	35.638279
2074.417236	19.435850
2073.645264	25.910185
2072.873291	45.335331
2072.101074	38.852432
2071.328857	38.846012
2070.556396	48.549492
2069.783936	6.472196
2069.011230	51.769005
2068.238525	25.880224
2067.465576	29.110439
2066.692627	38.807503
2065.919434	45.267933
2065.145996	32.328892
2064.372559	38.788258
2063.599121	42.013664
2062.825439	25.850286
2062.051514	45.230518
2061.277588	41.992821
2060.503662	41.985874
2059.729248	32.291485
2058.955078	35.514759
2058.180664	45.193123
2057.406006	32.275463
2056.631348	38.724148
2055.856445	67.756042
2055.081543	61.292942
2054.306396	29.028696
2053.531250	29.023891
2052.755859	32.243431
2051.980225	35.461903
2051.204590	32.232758
2050.428955	54.786617
2049.653076	41.888714
2048.877197	41.881779
2048.101074	38.653702
2047.324707	32.206085
2046.548340	28.980679
2045.771851	32.195423
2044.995239	35.409100
2044.218506	19.310856
2043.441528	41.833256
2042.664551	48.261147
2041.887329	38.602524
2041.110107	48.245159
2040.332642	51.452980
2039.555176	32.152786
2038.777466	28.932713
2037.999634	54.641621
2037.221802	48.205208
2036.443726	51.410366
2035.665527	32.126156
2034.887207	32.120831
2034.108765	35.327057
2033.330200	38.532219
2032.551514	38.525833
2031.772705	48.149307
2030.993774	38.513062
2030.214600	60.968903
2029.435425	38.500290
2028.656128	44.909557
2027.876587	51.316696
2027.097046	32.067619
2026.317261	51.299679
2025.537476	48.085472
2024.757446	48.077496
2023.977295	48.069523
2023.197021	44.857445
2022.416626	48.053574
2021.636230	32.030403
2020.855591	38.430103
2020.074707	41.625706
2019.293823	32.014462
2018.512817	32.009148
2017.731689	44.805370
2016.950439	35.198376
2016.168945	63.986427
2015.387451	57.578224
2014.605713	83.154739
2013.823975	63.954567
2013.041992	73.535545
2012.260010	54.343334
2011.477783	51.138172
2010.695435	38.347263
2009.912964	44.731045
2009.130371	54.307247
2008.347656	38.328159
2007.564819	47.902245
2006.781860	38.315430
2005.998779	31.924221
2005.215576	47.878376
2004.432129	44.679062
2003.648682	35.099144
2002.864990	54.235119
2002.081299	54.226109
2001.297363	70.163300
2000.513428	51.019375
1999.729248	57.387260
1998.944946	54.190071
1998.160522	60.555305
1997.375977	50.985466
1996.591309	47.790928
1995.806519	35.040855
1995.021606	54.145046
1994.236572	38.213676
1993.451416	70.046761
1992.666016	44.567799
1991.880615	63.657696
1991.094971	38.188267
1990.309326	54.091045
1989.523438	57.263344
1988.737549	50.892284
1987.951416	50.883820
1987.165161	34.976807
1986.378784	38.150169
1985.592285	44.501125
1984.805664	34.959351
1984.018921	60.374287
1983.232056	54.010109
1982.444946	47.648048
1981.657837	60.344151
1980.870605	34.930271
1980.083130	66.673965
1979.295654	50.790756
1978.507935	63.477875
1977.720093	44.427116
1976.932129	28.555534
1976.144165	57.101559
1975.355957	47.576710
1974.567627	44.397533
1973.779053	47.560863
1972.990479	38.042355
1972.201782	47.545025
1971.412964	63.382809
1970.623901	44.360573
1969.834839	63.361694
1969.045532	63.351139
1968.256226	57.006523
1967.466675	60.163528
1966.677002	69.651428
1965.887207	44.316250
1965.097290	50.638702
1964.307251	69.616608
1963.517090	56.949551
1962.726807	69.593407
1961.936401	50.604950
1961.145874	66.407928
1960.355103	47.426327
1959.564331	50.579647
1958.773315	60.053314
1957.982178	47.402607
1957.191040	34.756115
1956.399658	101.091843
1955.608154	63.171864
1954.816528	44.212929
1954.024780	50.520634
1953.232910	75.768311
1952.440918	69.442703
1951.648682	75.743034
1950.856445	50.486931
1950.063965	63.098137
1949.271484	78.859512
1948.478760	78.846352
1947.685913	47.299919
1946.893066	56.750427
1946.099976	37.827305
1945.306763	53.579739
1944.513428	50.419571
1943.719971	44.109760
1942.926270	69.303772
1942.132568	72.441841
1941.338745	75.578873
1940.544678	50.377499
1939.750610	69.257500
1938.956299	81.836098
1938.161865	66.087349
1937.367310	66.076317
1936.572632	75.503174
1935.777832	75.490562
1934.982910	62.898296
1934.187866	69.176567
1933.392700	75.452736
1932.597290	75.440132
1931.801880	53.427834
1931.006226	53.418907
1930.210571	69.118797
1929.414673	72.248489
1928.618652	81.658554
1927.822510	40.822453
1927.026245	56.513947
1926.229858	69.061058
1925.433350	56.495056
1924.636719	62.761791
1923.839844	62.751297
1923.042969	78.426010
1922.245850	90.958961
1921.448730	59.583836
1920.651367	50.167473
1919.853882	53.294025
1919.056274	68.957199
1918.258545	62.677879
1917.460693	50.133919
1916.662720	53.258377
1915.864624	56.381790
1915.066284	56.372356
1914.267944	72.019295
1913.469360	53.222744
1912.670776	75.125420
1911.871948	59.464340
1911.072998	62.583565
1910.273926	100.116943
1909.474731	90.715797
1908.675415	71.934967
1907.875977	56.287510
1907.076294	53.151527
1906.276611	68.772812
1905.476807	50.008217
1904.676758	68.749786
1903.876587	68.738274
1903.076294	62.478874
1902.275879	74.962097
1901.475342	46.843464
1900.674683	49.957993
1899.873901	78.046288
1899.072998	84.275871
1898.271851	93.624168
1897.470703	71.766510
1896.669312	74.874245
1895.867920	74.861694
1895.066284	81.086586
1894.264526	62.363842
1893.462646	74.824074
1892.660645	74.811531
1891.858521	74.798996
1891.056152	68.554253
1890.253784	77.889496
1889.451172	68.531273
1888.648560	87.206993
1887.845703	80.964348
1887.042725	74.723785
1886.239624	46.694538
1885.436401	40.461815
1884.633057	74.686203
1883.829590	52.893856
1883.025879	80.882919
1882.222168	65.317551
1881.418213	71.526276
1880.614258	62.186325
1879.810059	40.414330
1879.005737	74.598557
1878.201294	55.939529
1877.396729	68.359062
1876.592041	83.881134
1875.787231	80.760872
1874.982178	83.852989
1874.177124	71.418335
1873.371826	86.929466
1872.566406	68.290260
1871.760986	68.278793
1870.955322	80.679573
1870.149536	89.973648
1869.343506	62.040375
1868.537476	96.146431
1867.731323	80.625404
1866.924927	86.812775
1866.118530	65.098648
1865.311890	102.280693
1864.505127	92.966835
1863.698242	68.164223
1862.891235	99.131310
1862.084106	99.114655
1861.276855	74.323502
1860.469482	89.792480
1859.661865	65.011215
1858.854126	83.571800
1858.046387	74.273560
1857.238403	92.826347
1856.430298	117.560280
1855.622070	89.701981
1854.813721	80.408943
1854.005249	98.948219
1853.196533	98.931587
1852.387817	98.914955
1851.578857	98.898323
1850.769775	77.251328
1849.960693	92.686005
1849.151367	105.026466
1848.341919	105.008804
1847.532227	89.551270
1846.722534	108.060944
1845.912720	104.955833
1845.102661	80.246841
1844.292603	86.405136
1843.482300	83.305222
1842.671875	98.715500
1841.861328	77.108513
1841.050659	80.179359
1840.239868	80.165863
1839.428833	120.228561
1838.617798	117.126060
1837.806519	110.942856
1836.995117	110.924179
1836.183716	98.582672
1835.372070	107.806648
1834.560303	92.390144
1833.748291	89.295433
1832.936279	76.965858
1832.124146	110.812180
1831.311768	95.405533
1830.499390	92.312386
1829.686768	83.067154
1828.874023	89.205246
1828.061157	89.190224
1827.248169	101.475227
1826.434937	89.160179
1825.621704	89.145157
1824.808228	86.056686
1823.994751	95.260986
1823.181030	95.244934
1822.367188	116.732185
1821.553223	107.498367
1820.739136	132.047165
1819.924927	98.251091
1819.110474	89.025047
1818.296021	61.386234
1817.481323	95.132622
1816.666626	67.502090
1815.851685	88.965027
1815.036621	85.882790
1814.221436	98.135208
1813.406006	116.515907
1812.590576	98.102112
1811.774902	116.476608
1810.959229	113.392303
1810.143311	88.860062
1809.327271	91.908691
1808.511108	116.398041
1807.694824	76.564735
1806.878418	82.675964
1806.061768	104.092911
1805.245117	113.258461
1804.428223	97.936737
1803.611206	85.680183
1802.794067	82.606232
1801.976807	100.946129
1801.159424	103.987549
1800.341919	97.854118
1799.524170	91.722748
1798.706421	82.536537
1797.888428	91.691780
1797.070313	113.067429
1796.252075	116.103699
1795.433716	109.974403
1794.615234	88.575531
1793.796509	109.937263
1792.977783	85.492317
1792.158813	94.636223
1791.339844	106.829300
1790.520630	112.914749
1789.701294	79.332092
1788.881714	152.535950
1788.062134	97.606514
1787.242432	103.689392
1786.422485	106.721046
1785.602417	103.654350
1784.782349	112.781258
1783.962036	97.524063
1783.141479	109.696030
1782.320923	85.304710
1781.500244	106.612862
1780.679321	97.458138
1779.858398	115.711967
1779.037231	85.247032
1778.215942	79.144577
1777.394531	97.392235
1776.572998	88.246788
1775.751221	103.444252
1774.929443	124.720505
1774.107422	121.657959
1773.285278	124.678314
1772.463013	106.414703
1771.640625	103.356789
1770.818115	130.693832
1769.995483	109.399574
1769.172607	97.227608
1768.349731	85.059761
1767.526611	97.194702
1766.703369	109.325539
1765.880005	91.089195
1765.056519	103.216949
1764.232910	97.128914
1763.409058	103.182007
1762.585083	121.370041
1761.761108	87.978378
1760.936890	109.196053
1760.112549	118.275688
1759.288086	112.191269
1758.463379	100.045532
1757.638672	93.966255
1756.813721	96.980995
1755.988647	124.235847
1755.163574	90.888878
1754.338257	130.251999
1753.512695	106.001106
1752.687134	109.011230
1751.861328	127.158226
1751.035522	105.947227
1750.209473	99.876175
1749.383301	118.015472
1748.557007	111.944420
1747.730591	96.800385
1746.903931	102.832977
1746.077271	117.935478
1745.250366	130.009384
1744.423340	102.780685
1743.596313	123.920403
1742.768921	96.701965
1741.941528	135.964081
1741.114014	145.003754
1740.286255	163.101563
1739.458374	129.855133
1738.630493	120.774994
1737.802368	108.679054
1736.973999	111.678970
1736.145630	111.660019
1735.317139	84.485138
1734.488403	126.706207
1733.659546	135.733612
1732.830566	126.663208
1732.001465	153.779221
1731.172241	123.605453
1730.342896	132.627243
1729.513306	120.549759
1728.683594	117.516060
1727.853882	108.457947
1727.023926	105.427330
1726.193726	120.467918
1725.363525	108.402718
1724.533203	96.341606
1723.702637	117.396400
1722.871948	132.424728
1722.041138	132.402237
1721.210205	141.405640
1720.379150	114.308540
1719.547974	120.304344
1718.716553	102.241318
1717.885010	126.276642
1717.053467	102.206581
1716.221558	96.178085
1715.389648	117.197128
1714.557617	114.172668
1713.725342	105.141167
1712.893066	141.165573
1712.060547	135.135544
1711.227905	105.087563
1710.395142	129.085632
1709.562256	129.063690
1708.729126	111.035919
1707.895874	153.023483
1707.062622	128.997864
1706.229126	134.974808
1705.395508	116.958275
1704.561646	95.949448
1703.727783	116.918495
1702.893677	95.916809
1702.059570	143.850739
1701.225220	119.855225
1700.390747	125.826576
1699.556030	95.851555
1698.721313	134.768326
1697.886353	122.768021
1697.051392	113.765633
1696.216187	161.639435
1695.380859	137.669418
1694.545410	119.692169
1693.709717	125.655388
1692.874023	134.607849
1692.038086	125.612610
1691.202026	137.552292
1690.365845	131.549362
1689.529541	128.537704
1688.692993	122.538345
1687.856445	119.529243
1687.019653	122.496613
1686.182739	122.475754
1685.345703	116.481483
1684.508545	131.392624
1683.671143	137.341614
1682.833740	146.273758
1681.996094	125.356140
1681.158325	140.255600
1680.320435	122.329781
1679.482422	143.190948
1678.644287	119.305458
1677.805908	116.302994
1676.967407	152.062607
1676.128784	134.150024
1675.290039	131.146561
1674.451172	116.223724
1673.612183	116.203911
1672.772949	131.079498
1671.933594	122.121429
1671.094116	142.947052
1670.254517	113.147118
1669.414795	133.967163
1668.574829	157.756638
1667.734863	145.825607
1666.894653	145.800735
1666.054321	121.975723
1665.213867	133.852951
1664.373169	107.064095
1663.532471	139.754272
1662.691528	154.595367
1661.850464	133.761627
1661.009277	151.570648
1660.167969	151.544785
1659.326538	148.547958
1658.484863	127.729439
1657.643066	145.527313
1656.801147	142.533035
1655.959106	145.477631
1655.116943	139.515945
1654.274658	163.235458
1653.432129	133.533493
1652.589478	127.576874
1651.746704	127.555092
1650.903809	154.226318
1650.060791	136.407684
1649.217529	115.630234
1648.374146	103.752998
1647.530640	130.410065
1646.687012	127.424423
1645.843262	154.068329
1644.999390	142.192627
1644.155273	127.359123
1643.311035	133.260025
1642.466675	139.158920
1641.622192	112.492233
1640.777588	112.473007
1639.932739	147.965515
1639.087769	124.269783
1638.242798	121.290237
1637.397461	141.974060
1636.552124	141.949783
1635.706665	121.228043
1634.860962	130.076141
1634.015137	130.053894
1633.169189	150.718506
1632.323120	106.371346
1631.476929	127.032928
1630.630493	147.687439
1629.783936	147.662186
1628.937256	112.204063
1628.090454	194.847397
1627.243530	126.924316
1626.396484	153.463608
1625.549194	126.880882
1624.701782	165.211945
1623.854248	100.290085
1623.006592	153.358582
1622.158691	153.332336
1621.310791	144.461517
1620.462646	138.541397
1619.614380	135.570496
1618.765991	153.227371
1617.917358	129.631729
1617.068726	147.283569
1616.219849	132.532516
1615.370850	135.454483
1614.521729	161.928711
1613.672363	126.577126
1612.822998	138.328049
1611.973389	155.960220
1611.123657	161.817795
1610.273804	164.731705
1609.423828	147.056686
1608.573608	144.090851
1607.723389	123.485291
1606.872925	144.041489
1606.022339	161.651505
1605.171509	138.114883
1604.320679	146.905548
1603.469604	135.129944
1602.618408	132.169678
1601.767090	140.956818
1600.915649	170.293625
1600.064087	190.813583
1599.212280	176.105408
1598.360352	161.402283
1597.508301	190.715439
1596.656128	184.815567
1595.803833	164.252335
1594.951294	117.302971
1594.098633	143.671494
1593.245850	178.825668
1592.392944	190.519257
1591.539795	128.944748
1590.686646	169.943466
1589.833252	172.843857
1588.979736	158.168930
1588.126099	184.498749
1587.272217	169.826843
1586.418335	158.087509
1585.564209	155.133331
1584.709961	137.547455
1583.855591	158.006119
1583.000977	131.649170
1582.146362	169.652008
1581.291504	155.000214
1580.436523	157.897629
1579.581421	163.717575
1578.726074	178.304596
1577.870605	137.358627
1577.015137	146.101105
1576.159424	137.311447
1575.303467	157.735001
1574.447510	163.548935
1573.591309	137.240707
1572.734985	140.136627
1571.878540	172.221680
1571.021973	134.251465
1570.165161	169.244492
1569.308350	157.545380
1568.451294	212.941406
1567.594116	148.741714
1566.736694	134.136139
1565.879272	154.521591
1565.021606	137.005020
1564.163818	198.185944
1563.305908	186.495880
1562.447876	189.377319
1561.589600	163.127777
1560.731201	163.099731
1559.872681	160.159683
1559.014038	186.335587
1558.155273	160.104599
1557.296265	151.345581
1556.437134	162.959503
1555.577881	151.293518
1554.718506	145.449509
1553.859009	151.241455
1552.999268	183.203308
1552.139404	165.726852
1551.279419	174.419296
1550.419312	162.763321
1549.558960	162.735306
1548.698608	148.179871
1547.838013	153.964325
1546.977173	185.887192
1546.116333	151.007339
1545.255249	148.077850
1544.394165	177.082230
1543.532837	174.149246
1542.671265	139.295410
1541.809692	171.187775
1540.947876	188.564224
1540.085938	156.626373
1539.223877	176.899307
1538.361694	162.371399
1537.499268	194.232315
1536.636841	197.097336
1535.774170	208.655334
1534.911377	168.054504
1534.048340	173.819534
1533.185303	182.479050
1532.322021	225.887512
1531.458618	225.848572
1530.594971	182.384720
1529.731323	211.298233
1528.867432	193.897827
1528.003418	196.757904
1527.139282	167.793976
1526.275024	170.657547
1525.410522	153.276108
1524.545898	185.056213
1523.681152	208.152328
1522.816284	199.444916
1521.951172	196.520508
1521.086060	144.475449
1520.220703	132.894485
1519.355225	158.868164
1518.489502	173.280823
1517.623779	170.363403
1516.757813	155.898926
1515.891724	152.985504
1515.025513	176.047272
1514.159058	176.016891
1513.292480	150.021286
1512.425781	164.418015
1511.558960	152.853531
1510.692017	196.080093
1509.824829	175.865021
1508.957520	184.482254
1508.090088	195.978561
1507.222534	178.655472
1506.354736	178.624619
1505.486938	187.235413
1504.618896	164.162689
1503.750610	190.050278
1502.882324	192.896515
1502.013794	189.984634
1501.145142	201.464035
1500.276367	164.020950
1499.407471	207.148560
1498.538330	184.100235
1497.669067	189.820557
1496.799683	207.041183
1495.930176	184.004807
1495.060547	169.600113
1494.190674	175.318954
1493.320679	149.426392
1492.450562	181.004517
1491.580200	221.189499
1490.709717	186.686127
1489.839233	172.295853
1488.968384	200.977066
1488.097534	192.330505
1487.226440	198.037460
1486.355347	212.351257
1485.483887	186.492493
1484.612427	192.197479
1483.740845	226.581696
1482.869019	200.733856
1481.997070	249.440353
1481.124878	206.397675
1480.252686	246.487900
1479.380249	206.326248
1478.507690	200.560242
1477.635010	257.818542
1476.762207	226.268219
1475.889160	254.865646
1475.015991	220.463562
1474.142700	320.618774
1473.269165	337.736298
1472.395630	317.646088
1471.521851	317.591064
1470.647949	317.536072
1469.773804	380.405273
1468.899658	428.954193
1468.025269	440.316681
1467.150757	497.414490
1466.276001	480.179077
1465.401245	548.681030
1464.526245	531.442688
1463.651123	522.780396
1462.775879	519.833618
1461.900391	576.858215
1461.024780	602.455383
1460.149048	605.205688
1459.273193	605.100830
1458.397217	610.703430
1457.520996	542.119385
1456.644653	576.258545
1455.768188	541.931396
1454.891479	536.133911
1454.014648	521.784546
1453.137695	544.500366
1452.260620	507.352142
1451.383423	544.311523
1450.505981	529.970581
1449.628418	521.332275
1448.750732	549.724976
1447.872803	535.390503
1446.994873	498.282379
1446.116699	606.375610
1445.238403	606.270386
1444.359863	614.702759
1443.481201	623.132141
1442.602417	722.594055
1441.723511	787.889038
1440.844482	804.815491
1439.965210	989.495300
1439.085815	997.852234
1438.206299	1054.526733
1437.326538	1011.715271
1436.446777	934.821716
1435.566772	883.523010
1434.686646	764.072083
1433.806274	681.581604
1432.925781	604.798645
1432.045166	587.659973
1431.164429	508.081482
1430.283569	513.669128
1429.402466	448.318359
1428.521240	394.338135
1427.639893	433.980225
1426.758301	380.021240
1425.876709	351.600342
1424.994873	354.374237
1424.112793	351.478149
1423.230713	342.915039
1422.348389	357.023010
1421.465942	342.795837
1420.583374	376.726624
1419.700562	416.309662
1418.817627	489.857483
1417.934570	535.069153
1417.051392	648.198608
1416.167969	744.308228
1415.284546	834.725281
1414.400757	803.460144
1413.516968	732.605591
1412.633057	644.807007
1411.748901	483.521149
1410.864624	429.721802
1409.980103	333.541779
1409.095459	276.961090
1408.210815	265.610321
1407.325806	214.711411
1406.440796	172.304169
1405.555542	183.570847
1404.670166	200.480942
1403.784668	208.915604
1402.899048	155.248077
1402.013184	149.576660
1401.127197	155.194031
1400.241089	186.200424
1399.354736	166.422913
1398.468262	172.034393
1397.581665	160.725464
1396.694946	191.709259
1395.807983	166.307007
1394.920898	197.279037
1394.033691	177.520203
1393.146362	183.123856
1392.258789	169.007965
1391.371094	168.978516
1390.483276	185.843979
1389.595337	208.334213
1388.707153	166.075363
1387.818848	182.932495
1386.930420	168.831345
1386.041748	211.002396
1385.152954	194.088364
1384.264038	182.804993
1383.375000	177.149338
1382.485718	177.118454
1381.596313	168.654831
1380.706787	154.573303
1379.817139	154.546356
1378.927246	157.328842
1378.037231	168.537216
1377.147095	185.358612
1376.256714	190.942230
1375.366333	249.866074
1374.475586	227.366531
1373.584839	216.100861
1372.693970	202.033081
1371.802856	182.359146
1370.911499	215.987762
1370.020142	227.168243
1369.128540	257.973236
1368.236816	243.910370
1367.344971	238.261642
1366.453003	227.009689
1365.560791	257.793152
1364.668457	212.922394
1363.775879	271.708771
1362.883301	229.651840
1361.990479	224.011444
1361.097534	173.578552
1360.204346	181.945740
1359.311035	181.913956
1358.417603	176.285812
1357.524048	204.232010
1356.630249	184.615860
1355.736450	181.786896
1354.842285	204.124985
1353.948120	173.336136
1353.053711	192.872635
1352.159180	181.659866
1351.264526	176.039566
1350.369751	145.277100
1349.474731	162.011520
1348.579590	181.532898
1347.684204	175.916519
1346.788818	170.302094
1345.893188	167.480972
1344.997314	175.824265
1344.101440	195.326141
1343.205322	164.603241
1342.309082	161.785065
1341.412720	206.379318
1340.516113	189.612701
1339.619385	172.851929
1338.722534	164.459351
1337.825439	189.513214
1336.928223	225.704178
1336.030884	197.804855
1335.133423	206.126740
1334.235718	186.595596
1333.337891	158.717728
1332.439941	183.746262
1331.541870	183.714096
1330.643555	200.380310
1329.745117	178.084656
1328.846436	211.438507
1327.947754	222.527878
1327.048828	216.926697
1326.149780	197.424347
1325.250488	202.950043
1324.351074	186.236603
1323.451538	216.774796
1322.551880	194.507401
1321.651978	191.695145
1320.751953	197.216980
1319.851807	197.182434
1318.951416	188.817688
1318.050903	202.665833
1317.150269	191.527283
1316.249512	222.021713
1315.348511	233.081955
1314.447388	246.912598
1313.546021	221.905014
1312.644653	246.826050
1311.743042	246.782791
1310.841309	263.373657
1309.939331	318.764832
1309.037231	285.452362
1308.135010	271.547852
1307.232666	307.515564
1306.330078	252.063141
1305.427368	307.407715
1304.524536	321.198578
1303.621460	368.206177
1302.718262	307.246002
1301.814941	431.729431
1300.911499	384.614502
1300.007813	395.613129
1299.104004	472.992828
1298.199951	514.393188
1297.295898	575.134399
1296.391602	904.018982
1295.487061	1268.721436
1294.582520	1765.949219
1293.677734	1829.191162
1292.772827	1693.500610
1291.867676	1358.982056
1290.962402	903.067322
1290.057007	566.043701
1289.151489	458.276855
1288.245728	356.068268
1287.339844	289.772125
1286.433838	292.480469
1285.527588	278.635284
1284.621216	256.520111
1283.714722	217.865891
1282.808105	217.827621
1281.901245	206.762039
1280.994263	203.969376
1280.087036	198.421814
1279.179810	179.099335
1278.272217	157.028732
1277.364624	181.790787
1276.456787	176.250992
1275.548828	165.206268
1274.640747	203.718582
1273.732544	181.663010
1272.824097	192.639008
1271.915405	203.611145
1271.006714	176.065170
1270.097778	181.535278
1269.188721	159.502945
1268.279541	170.473160
1267.370117	173.192261
1266.460571	153.921600
1265.550781	153.894531
1264.640991	156.615082
1263.730957	162.081833
1262.820679	186.773315
1261.910400	151.040070
1260.999878	129.047897
1260.089233	142.751266
1259.178345	153.705078
1258.267334	167.399277
1257.356201	153.650970
1256.444824	137.164230
1255.533447	153.596893
1254.621704	164.539124
1253.709961	134.349960
1252.797974	142.550354
1251.885864	153.488739
1250.973633	126.057831
1250.061157	115.076012
1249.148560	126.013435
1248.235840	117.774422
1247.322876	161.569000
1246.409790	145.112686
1245.496582	128.662155
1244.583130	106.743408
1243.669556	95.778488
1242.755859	120.386024
1241.841919	134.042633
1240.927856	153.164581
1240.013672	142.199188
1239.099365	120.301178
1238.184814	128.480881
1237.270142	106.593002
1236.355225	114.772224
1235.440186	133.877319
1234.525024	122.926888
1233.609741	131.098892
1232.694214	109.229805
1231.778564	122.861862
1230.862671	131.029541
1229.946777	125.547829
1229.030640	130.983322
1228.114258	114.590187
1227.197876	139.120682
1226.281128	120.004509
1225.364380	106.348862
1224.447388	119.962166
1223.530273	155.378113
1222.613037	122.645279
1221.695557	128.073578
1220.777954	130.775452
1219.860229	144.372406
1218.942261	157.964554
1218.024170	152.490585
1217.105957	122.515434
1216.187500	114.327553
1215.268921	117.028969
1214.350220	136.056168
1213.431274	130.590851
1212.512207	122.407303
1211.593018	130.544724
1210.673706	92.452850
1209.754150	108.748840
1208.834351	89.701942
1207.914551	114.145943
1206.994507	133.146729
1206.074219	105.955208
1205.153931	92.354881
1204.233398	119.496964
1203.312744	70.599358
1202.391846	127.599365
1201.470825	116.719208
1200.549683	103.128975
1199.628296	103.110741
1198.706787	116.657318
1197.785156	116.636688
1196.863281	130.176071
1195.941284	122.018486
1195.019165	105.730652
1194.096802	111.133080
1193.174438	116.533592
1192.251709	121.932182
1191.328979	124.619743
1190.406006	127.306343
1189.482788	111.034821
1188.559570	116.430550
1187.636108	129.945984
1186.712402	124.509529
1185.788696	119.074997
1184.864746	121.759689
1183.940552	113.622269
1183.016357	132.535843
1182.091919	137.921051
1181.167236	116.265793
1180.242554	148.685730
1179.317505	124.333321
1178.392456	127.013725
1177.467163	156.712585
1176.541748	140.476059
1175.616211	164.760025
1174.690430	167.431351
1173.764526	159.301620
1172.838501	156.573853
1171.912231	159.245178
1170.985840	196.997253
1170.059204	232.037842
1169.132446	267.066010
1168.205566	256.230042
1167.278564	280.454742
1166.351318	196.822769
1165.423828	172.526367
1164.496338	156.324310
1163.568604	158.991364
1162.640747	113.160225
1161.712646	150.853546
1160.784424	142.746796
1159.856079	118.485764
1158.927490	150.773315
1157.998779	137.287064
1157.069946	126.497009
1156.140869	102.256035
1155.211670	121.071198
1154.282349	131.809692
1153.352783	118.338730
1152.423096	145.208130
1151.493164	129.050995
1150.563232	172.037445
1149.632935	115.567154
1148.702637	137.043686
1147.772095	145.079330
1146.841431	153.112106
1145.910522	155.770630
1144.979492	150.372528
1144.048340	158.400085
1143.116943	177.161850
1142.185425	150.292450
1141.253784	152.949081
1140.321899	174.384644
1139.389893	150.212402
1138.457764	185.050262
1137.525391	206.468689
1136.592896	227.879486
1135.660278	276.087280
1134.727417	297.478088
1133.794434	385.848938
1132.861206	482.225494
1131.927856	624.103149
1130.994385	923.937073
1130.060669	1156.724243
1129.126831	1475.096680
1128.192871	1464.127930
1127.258667	1423.725098
1126.324341	1177.307617
1125.389893	853.396301
1124.455200	625.890991
1123.520386	529.505920
1122.585327	465.240631
1121.650146	384.958252
1120.714844	320.741486
1119.779297	280.598877
1118.843628	283.220886
1117.907837	205.699326
1116.971802	251.068787
1116.035645	243.012711
1115.099365	205.589554
1114.162842	154.832108
1113.226196	192.171173
1112.289307	157.445572
1111.352417	184.098495
1110.415161	189.400970
1109.477905	197.368683
1108.540405	157.333511
1107.602661	165.304092
1106.664917	151.946060
1105.726807	175.906204
1104.788696	165.215805
1103.850342	173.179276
1102.911865	149.174042
1101.973145	173.117599
1101.034302	151.783768
1100.095337	151.756744
1099.156128	154.391632
1098.216797	162.348480
1097.277344	149.014664
1096.337646	138.346115
1095.397827	164.921738
1094.457764	164.892349
1093.517700	132.954010
1092.577271	172.809402
1091.636841	159.487946
1090.696167	170.090149
1089.755249	196.631668
1088.814209	215.193588
1087.873047	185.936615
1086.931763	188.559235
1085.990234	159.317413
1085.048584	215.040146
1084.106689	201.730087
1083.164673	220.271194
1082.222412	212.271713
1081.280151	198.969238
1080.337524	204.238647
1079.394897	233.373947
1078.452026	249.241333
1077.509033	259.800995
1076.565796	219.996262
1075.622437	204.056503
1074.678955	233.165802
1073.735229	209.281952
1072.791382	190.703934
1071.847290	235.689163
1070.903076	172.101807
1069.958740	214.427048
1069.014160	259.383942
1068.069458	272.569122
1067.124512	291.041260
1066.179565	370.350006
1065.234253	539.556519
1064.288940	721.924561
1063.343384	935.954773
1062.397583	1009.804688
1061.451660	1030.768188
1060.505615	872.032715
1059.559448	837.530212
1058.613037	686.810547
1057.666382	549.350281
1056.719727	401.376526
1055.772827	314.179413
1054.825684	258.689728
1053.878418	242.808182
1052.931030	237.487289
1051.983398	240.083099
1051.035645	189.921906
1050.087769	176.701279
1049.139648	163.485382
1048.191406	158.183365
1047.242920	155.519165
1046.294312	134.407776
1045.345581	129.113785
1044.396606	147.532211
1043.447510	123.799530
1042.498291	144.845871
1041.548828	139.553787
1040.599121	147.426666
1039.649414	139.503845
1038.699341	123.688820
1037.749268	126.297890
1036.798950	121.013817
1035.848511	139.404007
1034.897827	139.379044
1033.947021	128.836807
1032.996094	89.380966
1032.044922	110.392014
1031.093506	144.535080
1030.142090	115.607361
1029.190430	118.213631
1028.238525	107.686462
1027.286499	120.797318
1026.334351	112.899002
1025.381958	115.503868
1024.429443	110.233940
1023.476807	120.710785
1022.523926	107.570770
1021.570923	118.044327
1020.617737	125.891380
1019.664368	86.534813
1018.710815	97.006493
1017.757080	112.717072
1016.803223	86.488297
1015.849121	112.676666
1014.894897	138.855652
1013.940491	94.300133
1012.985962	107.378120
1012.031189	133.543945
1011.076294	96.867455
1010.121216	96.850082
1009.165955	102.066910
1008.210510	94.198715
1007.254944	117.727272
1006.299133	94.164925
1005.343201	115.069809
1004.387085	88.901627
1003.430786	115.028526
1002.474365	109.780251
1001.517700	112.373901
1000.560913	99.289345
999.603943	107.108749
998.646790	78.358192
997.689514	86.178535
996.731995	114.884087
995.774353	99.200264
994.816528	127.893166
993.858521	101.774239
992.900330	120.019859
991.942017	104.346352
990.983459	101.719421
990.024780	91.270264
989.065918	96.468376
988.106873	99.057831
987.147705	80.795822
986.188293	88.598846
985.228760	93.793694
984.269043	140.665253
983.309143	109.386650
982.349060	101.555069
981.388794	88.519272
980.428406	96.312485
979.467834	93.692604
978.507019	106.686279
977.546082	119.675285
976.585022	130.058441
975.623718	127.434357
974.662292	106.609573
973.700623	127.388535
972.738831	101.372635
971.776855	101.354408
970.814758	62.360722
969.852417	80.534775
968.889954	72.728004
967.927246	101.281494
966.964417	88.280800
966.001404	111.629166
965.038208	127.182434
964.074890	85.638062
963.111328	90.811905
962.147644	134.896255
961.183777	93.372910
960.219727	114.101898
959.255493	134.823425
958.291077	98.507072
957.326538	121.815758
956.361755	108.837036
955.396851	101.044762
954.431763	88.074440
953.466492	116.548119
952.501038	90.632210
951.535461	119.095161
950.569641	88.011002
949.603699	113.876076
948.637573	116.443184
947.671265	142.293808
946.704773	116.401222
945.738098	142.242523
944.771240	152.559937
943.804260	103.411827
942.837097	98.223526
941.869751	129.218185
940.902222	126.610992
939.934509	100.753845
938.966614	100.735680
937.998535	92.970016
937.030334	105.863426
936.061951	98.099632
935.093323	129.055176
934.124573	123.870628
933.155640	110.947418
932.186584	121.246239
931.217285	128.962082
930.247864	116.044937
929.278198	87.662582
928.308411	136.625839
927.338440	113.404755
926.368286	105.653542
925.397949	121.093178
924.427429	108.191391
923.456787	108.171867
922.485901	128.752777
921.514893	118.431175
920.543701	126.132172
919.572327	169.861633
918.600769	138.952606
917.629028	120.918396
916.657104	138.902420
915.685059	144.020950
914.712769	133.709579
913.740356	125.972809
912.767761	143.942917
911.794983	131.067184
910.822021	92.501297
909.848877	107.898682
908.875549	154.113113
907.902039	148.949097
906.928406	138.651672
905.954590	141.193771
904.980530	120.634689
904.006348	118.046654
903.031982	100.064941
902.057434	118.003975
901.082703	115.417801
900.107849	133.347565
899.132751	133.323456
898.157532	128.172440
897.182068	117.897316
896.206482	135.813644
895.230713	128.102905
894.254761	156.257278
893.278625	107.567513
892.302307	135.715393
891.325806	110.088791
890.349182	120.307838
889.372314	112.608231
888.395325	153.528885
887.418091	133.034286
886.440735	122.778656
885.463196	135.543564
884.485474	122.734207
883.507568	117.598984
882.529480	143.138062
881.551270	125.223129
880.572815	140.531113
879.594238	153.278915
878.615417	143.034409
877.636475	125.132439
876.657349	150.642380
875.677979	130.192703
874.698486	142.930801
873.718811	158.216141
872.739014	170.944534
871.758972	224.483475
870.778748	234.644730
869.798401	160.651520
868.817810	135.126785
867.837097	132.553192
866.856140	127.431885
865.875061	114.667908
864.893799	137.576538
863.912354	140.098846
862.930725	162.994553
861.948914	129.862732
860.966919	106.926384
859.984741	137.451843
859.002441	132.337036
858.019897	119.590622
857.037231	106.848831
856.054321	117.003677
855.071289	109.353157
854.088074	114.418587
853.104614	116.940002
852.121033	127.085632
851.137268	129.603821
850.153320	116.876343
849.169189	139.718094
848.184937	149.852203
847.200439	152.364410
846.215759	119.330444
845.230896	142.155151
844.245911	142.129333
843.260681	126.878143
842.275330	126.855103
841.289795	136.978638
840.304016	177.532639
839.318115	174.964676
838.332031	139.439255
837.345764	126.739937
836.359314	101.373528
835.372681	108.956741
834.385864	111.470360
833.398865	106.384193
832.411743	126.624832
831.424377	113.941635
830.436829	162.020874
829.449158	126.555794
828.461243	146.778030
827.473206	146.751358
826.484924	141.665192
825.496521	161.873642
824.507935	144.142502
823.519104	131.474503
822.530151	118.811119
821.541016	141.536438
820.551697	126.348831
819.562195	161.697083
818.572510	128.828918
817.582642	126.279884
816.592590	148.983154
815.602356	138.857330
814.611938	126.210960
813.621399	164.044388
812.630615	133.734924
811.639648	100.913651
810.648560	116.029572
809.657227	141.227676
808.665771	138.680511
807.674072	105.882195
806.682251	113.424553
805.690186	120.964157
804.697998	118.422501
803.705566	158.707642
802.713013	146.085175
801.720276	108.284798
800.727356	105.747284
799.734253	143.488022
798.740906	153.529388
797.747437	156.017822
796.753784	171.085144
795.759949	166.022964
794.765930	155.932541
793.771729	160.933289
792.777344	128.220337
791.782776	158.360962
790.788025	155.818893
789.793091	135.688477
788.798035	103.003952
787.802734	165.781006
786.807251	155.705276
785.811584	102.947617
784.815796	120.502052
783.819763	97.890060
782.823547	107.910378
781.827148	97.854355
780.830627	97.836502
779.833862	107.851334
778.836975	92.785378
777.839844	97.782959
776.842529	132.860275
775.845093	107.772629
774.847412	102.741196
773.849609	95.206169
772.851563	125.248405
771.853394	147.766144
770.854980	110.178360
769.856445	110.158241
768.857666	122.653824
767.858765	122.631424
766.859680	117.604576
765.860352	130.091934
764.860901	150.078674
763.861206	127.543564
762.861389	117.518677
761.861389	99.997627
760.861145	114.976257
759.860779	104.959137
758.860168	119.931381
757.859436	104.920784
756.858521	104.901611
755.857361	107.379639
754.856079	112.353500
753.854614	112.332962
752.852905	132.279083
751.851074	104.805763
750.848999	134.725632
749.846802	144.678848
748.844421	179.568481
747.841797	147.119492
746.839050	134.627106
745.836121	112.168739
744.832947	109.656036
743.829651	129.569794
742.826111	179.371506
741.822449	129.522385
740.818604	174.325150
739.814514	154.374023
738.810303	144.387985
737.805847	149.339539
736.801270	131.892456
735.796448	109.475578
734.791504	124.381287
733.786316	144.255890
732.781006	141.742752
731.775452	149.175583
730.769775	159.091492
729.763855	178.945145
728.757751	181.397263
727.751526	149.066345
726.745056	116.747246
725.738403	149.011734
724.731628	163.882874
723.724609	141.509277
722.717407	156.376343
721.710083	121.603760
720.702515	171.206558
719.694763	151.328796
718.686829	171.143814
717.678711	146.313538
716.670410	123.971802
715.661987	158.654816
714.653320	141.276031
713.644470	138.772064
712.635437	99.104729
711.626221	123.858192
710.616821	133.742325
709.607178	151.051575
708.597412	136.169067
707.587463	141.094788
706.577332	101.470612
705.567017	94.028679
704.556458	108.855339
703.545776	121.203026
702.534912	128.600006
701.523804	113.740677
700.512573	106.303291
699.501099	121.114075
698.489502	158.160782
697.477661	133.423660
696.465698	113.636330
695.453491	133.374680
694.441101	135.819641
693.428589	123.449722
692.415833	157.986633
691.402893	155.489532
690.389771	123.381721
689.376465	93.752892
688.362976	115.936218
687.349304	135.645126
686.335449	118.359451
685.321411	110.941597
684.307190	93.666801
683.292725	130.616531
682.278137	123.200500
681.263367	135.495636
680.248352	152.712463
679.233215	192.086823
678.217834	184.664917
677.202332	152.628265
676.186584	118.142097
675.170654	123.042053
674.154541	125.479820
673.138306	127.916679
672.121826	147.569031
671.105164	130.328659
670.088318	152.431900
669.071289	130.280731
668.054016	108.137688
667.036621	105.660568
666.019043	125.295288
665.001282	103.165375
663.983276	125.249184
662.965149	98.216576
661.946777	95.743538
660.928223	120.271019
659.909546	100.616409
658.890625	112.865929
657.871521	105.485680
656.852234	103.013557
655.832764	112.803596
654.813110	115.234627
653.793274	127.470146
652.773254	120.093979
651.752991	117.621414
650.732605	80.849831
649.711975	110.229454
648.691223	132.250977
647.670227	142.021179
646.649048	127.305870
645.627747	129.730148
644.606201	144.389969
643.584473	156.597549
642.562561	159.015060
641.540466	154.093887
640.518127	127.165161
639.495667	149.147018
638.473022	163.787003
637.450134	139.315491
636.427063	129.515091
635.403870	146.593811
634.380432	119.696205
633.356812	109.904808
632.333008	107.442657
631.309021	122.071411
630.284851	134.253784
629.260498	148.872177
628.235901	136.644318
627.211182	146.377609
626.186218	126.837189
625.161133	134.129959
624.135803	102.407616
623.110291	104.826538
622.084595	107.244568
621.058716	119.409401
620.032654	151.061554
619.006409	133.981476
617.979919	133.956741
616.953308	114.450981
615.926453	124.168556
614.899414	121.711395
613.872253	138.725372
612.844849	167.899689
611.817261	133.808365
610.789490	138.648499
609.761475	119.167046
608.733337	165.344116
607.705017	165.313568
606.676453	131.254166
605.647705	126.369537
604.618774	131.205643
603.589722	165.191391
602.560425	128.728317
601.530884	135.989670
600.501221	155.388031
599.471375	174.779221
598.441284	194.163223
597.411011	174.714584
596.380615	131.011703
595.349976	111.581924
594.319153	94.584572
593.288147	135.788620
592.256897	109.095665
591.225525	111.499382
590.193970	155.100876
589.162170	152.649170
588.130188	174.423920
587.098022	155.014786
586.065674	140.456146
585.033142	118.639267
584.000427	123.458832
582.967468	118.595352
581.934387	125.832993
580.901062	125.809692
579.867554	166.908875
578.833862	166.877960
577.799988	149.920547
576.765930	145.057526
575.731628	130.527603
574.697205	152.253998
573.662537	135.311813
572.627747	154.613419
571.592712	159.415543
570.557434	144.896378
569.522034	140.040543
568.486450	135.186493
567.450623	135.161453
566.414673	139.962692
565.378479	123.047836
564.342102	135.086304
563.305542	139.884872
562.268799	188.086166
561.231812	183.229462
560.194702	188.016418
559.157349	147.011215
558.119812	212.042419
557.082092	250.549103
556.044189	216.781128
555.006042	211.924454
553.967773	182.991699
552.929260	168.513718
551.890625	194.958267
550.851746	185.296310
549.812683	156.389938
548.773376	156.360916
547.733948	175.572739
546.694275	168.326172
545.654419	168.294937
544.614441	139.418488
543.574158	124.972679
542.533752	182.618469
541.493164	172.974838
540.452332	189.756592
539.411316	180.115204
538.370178	163.274124
537.328735	165.644440
536.287170	201.616653
535.245422	187.180679
534.203430	230.333420
533.161255	208.700882
532.118896	172.685883
531.076355	172.653793
530.033630	196.596939
528.990723	163.001312
527.947571	160.574387
526.904236	201.279709
525.860718	210.825272
524.817017	177.251923
523.773132	172.429260
522.729004	186.763641
521.684692	186.728912
520.640198	162.759033
519.595520	205.804031
518.550659	210.550995
517.505615	220.080551
516.460327	229.606552
515.414856	196.085770
514.369202	200.830978
513.323364	176.889618
512.277283	212.706024
511.231079	279.572754
510.184631	258.019135
509.138000	207.810043
508.091187	157.619659
507.044159	174.304443
505.996948	169.497421
504.949554	210.042191
503.901947	219.548676
502.854126	178.946579
501.806152	188.455292
500.757965	231.351379
499.709564	221.769806
