#Wave		#Intensity
3200.600830	-4.209852
3200.007080	37.888672
3199.413086	8.418432
3198.819092	33.668640
3198.224854	33.663551
3197.630615	8.414616
3197.036377	33.653374
3196.442139	33.648285
3195.847656	63.080997
3195.252930	16.819057
3194.658447	46.245411
3194.063721	42.034927
3193.468750	16.811428
3192.873779	46.224438
3192.278809	25.209517
3191.683838	25.205706
3191.088623	42.003155
3190.493164	16.798721
3189.897949	58.786633
3189.302490	71.372971
3188.706787	16.791100
3188.111328	58.759960
3187.515381	62.947575
3186.919678	33.566963
3186.323730	58.733295
3185.727783	54.529808
3185.131592	37.745693
3184.535400	41.933315
3183.939209	29.348879
3183.342773	29.344437
3182.746338	25.148569
3182.149902	50.289524
3181.553223	41.901596
3180.956543	33.516201
3180.359619	29.322239
3179.762695	41.882572
3179.165771	29.313362
3178.568604	25.121935
3177.971436	50.236263
3177.374268	71.157265
3176.776855	66.961403
3176.179443	25.106726
3175.581787	16.735283
3174.984131	16.732748
3174.386475	50.190643
3173.788574	12.545760
3173.190674	37.631580
3172.592773	58.529152
3171.994629	45.980225
3171.396484	62.690807
3170.798340	50.145050
3170.199951	41.781212
3169.601563	45.952370
3169.002930	37.591698
3168.404297	33.409782
3167.805664	45.931488
3167.206787	41.749573
3166.607910	25.045948
3166.008789	62.605381
3165.409912	41.730595
3164.810547	37.551846
3164.211426	16.687180
3163.612061	50.053951
3163.012695	54.216896
3162.413086	25.019390
3161.813477	8.338532
3161.213623	54.192245
3160.614014	54.184029
3160.013916	37.506332
3159.414063	29.167170
3158.813965	33.328854
3158.213867	20.827375
3157.613525	16.659374
3157.013184	37.477909
3156.412598	41.635803
3155.812256	54.118336
3155.211426	29.136223
3154.610840	45.778549
3154.010010	45.771606
3153.409180	20.802120
3152.808105	0.000000
3152.207031	33.273296
3151.605957	54.060902
3151.004639	24.947401
3150.403320	49.887230
3149.801758	66.506218
3149.200195	45.716087
3148.598633	66.486038
3147.996826	20.773733
3147.395020	29.078814
3146.793213	24.920914
3146.191162	37.375698
3145.589111	16.608900
3144.986816	74.728706
3144.384766	29.056753
3143.782227	20.751673
3143.179932	66.395271
3142.577393	45.639820
3141.974609	24.890667
3141.371826	29.034704
3140.769043	29.030294
3140.166260	29.025887
3139.563232	53.897034
3138.960205	49.743553
3138.356934	24.868000
3137.753662	41.440372
3137.150391	29.003855
3136.546875	49.713341
3135.943359	45.563641
3135.339600	28.990641
3134.735840	66.254257
3134.132080	33.122097
3133.528076	16.558531
3132.924072	33.112034
3132.320068	41.383751
3131.715820	37.239716
3131.111572	12.411353
3130.507080	8.272978
3129.902588	53.766186
3129.298096	20.676159
3128.693604	49.615242
3128.088867	-4.133975
3127.483887	78.533585
3126.878906	57.858059
3126.273926	37.188812
3125.668945	49.577545
3125.063721	66.093346
3124.458252	74.343712
3123.853027	66.073250
3123.247559	53.676353
3122.641846	28.898256
3122.036133	66.043114
3121.430420	41.270672
3120.824707	24.758636
3120.218750	49.509743
3119.612549	45.377029
3119.006592	20.622786
3118.400391	37.115368
3117.793945	12.369907
3117.187500	45.349426
3116.581055	32.976383
3115.974609	41.214211
3115.367920	41.207939
3114.760986	28.841169
3114.154297	57.673561
3113.547363	32.951305
3112.940186	53.537724
3112.333008	37.058937
3111.725830	32.936264
3111.118408	53.513287
3110.510986	86.431381
3109.903564	45.266689
3109.295898	49.374329
3108.688232	49.366814
3108.080566	78.152222
3107.472656	49.351784
3106.864746	41.120224
3106.256592	74.005135
3105.648438	57.550789
3105.040039	45.211590
3104.431885	45.204708
3103.823486	49.306717
3103.214844	36.974407
3102.606201	49.291698
3101.997559	53.391209
3101.388672	28.744734
3100.779785	32.846123
3100.170898	24.630838
3099.561768	41.045143
3098.952637	20.519445
3098.343262	16.413055
3097.733887	28.718472
3097.124512	20.510069
3096.514893	57.419445
3095.905273	53.309929
3095.295410	41.001389
3094.685791	40.995144
3094.075684	49.186672
3093.465820	8.196529
3092.855713	28.683481
3092.245361	45.067173
3091.635254	53.253086
3091.024658	61.436501
3090.414307	81.902847
3089.803711	61.417774
3089.193115	53.220623
3088.582275	16.373079
3087.971436	36.833813
3087.360596	12.276065
3086.749512	49.096771
3086.138428	40.907738
3085.527100	28.631050
3084.915771	28.626684
3084.304443	12.266707
3083.692871	32.706230
3083.081299	28.613588
3082.469482	32.696255
3081.857910	73.555351
3081.245850	16.343140
3080.634033	49.021942
3080.021973	28.591770
3079.409668	32.671322
3078.797607	20.416462
3078.185059	65.322708
3077.572754	28.574324
3076.960205	36.732811
3076.347656	61.212009
3075.734863	44.881954
3075.122070	40.795551
3074.509033	28.552526
3073.895996	12.234929
3073.282959	28.543810
3072.669922	61.155972
3072.056641	40.764423
3071.443115	24.454920
3070.829834	28.526384
3070.216064	24.447454
3069.602539	44.813488
3068.988770	40.733315
3068.375000	36.654385
3067.760986	24.432526
3067.146973	8.142931
3066.532715	65.133499
3065.918701	77.334221
3065.304199	32.556805
3064.689941	61.034679
3064.075439	32.546856
3063.460693	52.880566
3062.846191	44.738258
3062.231445	32.531944
3061.616455	40.658718
3061.001465	48.783005
3060.386475	56.904808
3059.771240	44.704090
3059.156006	44.697258
3058.540771	73.129791
3057.925293	77.180763
3057.309814	52.799816
3056.694092	4.060904
3056.078369	52.783680
3055.462646	16.238649
3054.846680	40.590416
3054.230713	81.168427
3053.614502	24.346804
3052.998291	44.628983
3052.382080	44.622162
3051.765625	40.559399
3051.149170	40.553196
3050.532715	52.711094
3049.916016	12.162238
3049.299316	20.267298
3048.682373	36.475555
3048.065430	32.417755
3047.448486	68.877197
3046.831299	4.050980
3046.214111	24.302162
3045.596680	64.795853
3044.979248	48.589455
3044.361816	64.776031
3043.744141	32.383057
3043.126465	68.803467
3042.508545	60.699654
3041.890869	48.552292
3041.272705	40.454052
3040.654785	56.627007
3040.036621	80.883347
3039.418213	68.740318
3038.799805	76.815659
3038.181396	32.338482
3037.562988	60.625374
3036.944336	52.533947
3036.325439	40.404545
3035.706543	64.637375
3035.087646	76.745125
3034.468750	64.617584
3033.849609	80.759605
3033.230469	60.560432
3032.611084	52.477669
3031.991699	84.758636
3031.372070	56.497105
3030.752441	52.453564
3030.132813	88.753975
3029.513184	44.370190
3028.893066	32.264286
3028.273193	60.486267
3027.653076	52.413403
3027.032959	12.093547
3026.412598	44.336212
3025.792480	52.389313
3025.171875	32.234638
3024.551270	68.488113
3023.930664	24.168570
3023.310059	48.329731
3022.689209	68.456627
3022.068115	60.393650
3021.447266	36.230637
3020.826172	72.450165
3020.204834	64.390274
3019.583496	60.356628
3018.962158	56.324219
3018.340576	60.338123
3017.718994	52.285023
3017.097412	52.277008
3016.475586	48.248302
3015.853760	24.120451
3015.231689	36.175129
3014.609619	24.113054
3013.987549	68.309845
3013.365234	32.140877
3012.742920	40.169937
3012.120361	36.147396
3011.497803	60.236420
3010.875244	32.121162
3010.252441	64.232468
3009.629639	52.180874
3009.006836	64.212761
3008.383789	56.177547
3007.760498	88.265457
3007.137451	64.183212
3006.514160	48.130020
3005.890625	36.091976
3005.267090	76.182480
3004.643555	28.062922
3004.019775	68.142349
3003.395996	88.170685
3002.772217	96.171432
3002.148193	64.104446
3001.524170	80.118256
3000.899902	56.074169
3000.275635	40.046829
2999.651367	36.036613
2999.026855	40.034534
2998.402344	48.034065
2997.777588	20.011120
2997.152832	52.020924
2996.528076	28.006964
2995.903076	32.003044
2995.278076	27.998362
2994.653076	43.990669
2994.027832	47.982449
2993.402344	59.968845
2992.777100	63.956944
2992.151367	79.933899
2991.525879	67.933372
2990.900146	23.972801
2990.274414	47.938236
2989.648438	51.925110
2989.022461	31.949003
2988.396240	27.951082
2987.770264	59.885971
2987.143799	75.843903
2986.517578	71.841080
2985.891113	43.896133
2985.264404	103.738548
2984.637695	63.829292
2984.010986	67.808197
2983.384033	67.797775
2982.757080	39.874912
2982.130127	47.842537
2981.502930	35.876385
2980.875732	43.842175
2980.248291	63.760632
2979.620850	51.797546
2978.993408	31.870510
2978.365723	15.932804
2977.738037	51.773651
2977.110107	43.801735
2976.482178	47.776363
2975.854248	91.557274
2975.226074	59.702080
2974.597900	35.815739
2973.969482	63.662624
2973.341309	47.739624
2972.712646	83.531487
2972.083984	59.656166
2971.455322	47.717590
2970.826660	63.613663
2970.197754	75.529602
2969.568604	91.416496
2968.939697	115.246536
2968.310547	67.547920
2967.681152	35.755157
2967.051758	43.694019
2966.422363	63.545155
2965.792725	71.477295
2965.163086	71.466293
2964.533203	55.576336
2963.903564	39.691269
2963.273438	55.559223
2962.643311	59.518570
2962.013184	67.443993
2961.383057	51.566875
2960.752686	67.423225
2960.122314	63.447376
2959.491699	39.648502
2958.861084	75.320549
2958.230225	83.236206
2957.599609	75.297348
2956.968506	79.248154
2956.337646	47.541569
2955.706299	87.146111
2955.075195	106.935570
2954.443848	63.359463
2953.812500	75.227768
2953.180908	67.298683
2952.549316	91.037125
2951.917725	102.895676
2951.285889	87.052155
2950.653809	39.563061
2950.021973	27.689875
2949.389893	102.832253
2948.757568	86.998489
2948.125244	94.892815
2947.492920	59.298866
2946.860352	98.816200
2946.227783	79.040771
2945.595215	86.931442
2944.962402	98.770500
2944.329590	126.406746
2943.696533	106.639244
2943.063477	134.265747
2942.430420	78.967667
2941.797119	94.746582
2941.163574	98.679138
2940.530273	146.022598
2939.896729	134.162231
2939.262939	189.376282
2938.629150	197.236511
2937.995361	153.820755
2937.361328	161.684036
2936.727295	169.544907
2936.093262	216.826294
2935.458984	169.492584
2934.824707	197.053986
2934.190186	149.737915
2933.555664	185.173569
2932.921143	185.144989
2932.286377	248.134766
2931.651367	200.839996
2931.016602	220.496140
2930.381592	216.525284
2929.746338	224.364288
2929.111084	192.844788
2928.475830	228.230011
2927.840332	192.785233
2927.204834	212.424393
2926.569336	212.391586
2925.933594	247.751907
2925.297607	267.373474
2924.661865	267.332184
2924.025879	176.883667
2923.389648	243.668747
2922.753418	227.912964
2922.117188	208.233124
2921.480713	274.982391
2920.844238	227.807358
2920.207764	196.355316
2919.571045	259.148956
2918.934082	259.108917
2918.297363	251.218307
2917.660156	251.179489
2917.023193	235.444366
2916.385986	231.484512
2915.748779	258.908752
2915.111328	258.868744
2914.473877	247.063782
2913.836182	250.946640
2913.198486	254.828278
2912.560791	278.307861
2911.922852	286.103271
2911.284912	293.896271
2910.646729	301.686859
2910.008545	278.135773
2909.370361	297.676758
2908.731934	289.798340
2908.093506	313.247040
2907.455078	274.048767
2906.816406	332.722046
2906.177490	297.446625
2905.538574	344.358612
2904.899658	324.742554
2904.260498	293.396667
2903.621338	344.198822
2902.982178	344.145569
2902.342773	375.373444
2901.703369	379.224915
2901.063721	394.801941
2900.424072	426.007446
2899.784424	371.233429
2899.144531	406.340027
2898.504639	386.744568
2897.864502	394.496521
2897.224365	406.151367
2896.583984	382.660339
2895.943848	398.217468
2895.303223	425.480225
2894.662842	398.094177
2894.021973	440.957611
2893.381348	440.889343
2892.740479	413.513580
2892.099609	397.847656
2891.458496	464.083740
2890.817383	464.011871
2890.176025	413.257477
2889.534668	436.581787
2888.893311	456.001404
2888.251709	529.970825
2887.610107	514.303772
2886.968262	483.058990
2886.326416	506.354340
2885.684570	514.064758
2885.042480	541.241882
2884.400391	541.158020
2883.758057	611.141357
2883.115723	653.858826
2882.473389	751.042847
2881.830811	793.725403
2881.188232	902.528198
2880.545410	925.725891
2879.902588	1007.251465
2879.259766	1061.532959
2878.616699	1189.665649
2877.973633	1154.496460
2877.330322	1045.492920
2876.687012	963.725098
2876.043457	881.982605
2875.399902	776.956665
2874.756348	718.573486
2874.112549	726.229187
2873.468750	613.510254
2872.824707	609.532776
2872.180664	570.620483
2871.536621	535.601440
2870.892334	516.115540
2870.248047	500.515625
2869.603760	500.437988
2868.958984	535.269226
2868.314453	465.379272
2867.669678	511.837769
2867.024902	500.127502
2866.379883	476.791748
2865.734863	523.226807
2865.089844	507.645020
2864.444580	445.573425
2863.799316	464.874023
2863.153809	522.902100
2862.508301	429.875000
2861.862549	468.529724
2861.216797	460.713898
2860.571045	476.126160
2859.925049	495.403961
2859.279053	553.373169
2858.632813	568.763855
2857.986572	549.332825
2857.340332	545.379578
2856.693848	564.631592
2856.047363	653.478943
2855.400635	610.849915
2854.753906	641.679321
2854.107178	622.255005
2853.460205	656.937378
2852.813232	637.516663
2852.166016	761.038025
2851.518799	760.919800
2850.871338	791.697083
2850.223877	853.355469
2849.576416	795.311829
2848.928711	826.069336
2848.281006	887.693542
2847.633301	906.850281
2846.985352	953.009399
2846.337158	964.434509
2845.688965	975.856018
2845.040771	983.417419
2844.392578	1014.112122
2843.743896	1013.954468
2843.095459	982.958923
2842.446777	978.951965
2841.798096	917.143066
2841.149170	920.853455
2840.500244	843.663391
2839.851074	866.642639
2839.202148	797.187256
2838.552734	716.201782
2837.903320	642.941406
2837.253906	596.649231
2836.604492	569.615173
2835.954834	538.741333
2835.304932	407.840698
2834.655029	477.022461
2834.005127	380.789337
2833.354980	388.421600
2832.704834	330.683777
2832.054688	338.321442
2831.404297	292.141235
2830.753906	288.252411
2830.103271	249.779892
2829.452637	215.161499
2828.801758	230.494293
2828.150879	226.617447
2827.500000	184.338043
2826.848877	184.309341
2826.197754	199.637375
2825.546387	165.059052
2824.895020	157.357391
2824.243408	157.332886
2823.591797	161.145187
2822.940186	153.447708
2822.288330	157.259415
2821.636475	111.214951
2820.984619	122.700829
2820.332520	103.512703
2819.680176	103.496582
2819.028076	114.978294
2818.375488	118.792397
2817.723145	114.942474
2817.070557	91.939659
2816.417725	107.246223
2815.764893	84.251762
2815.112061	126.357956
2814.458984	88.053940
2813.805908	91.868057
2813.152832	91.853745
2812.499512	99.492714
2811.845947	95.651161
2811.192383	84.159904
2810.538818	80.321938
2809.885010	80.309418
2809.231201	72.649574
2808.577393	91.753578
2807.923340	64.981987
2807.269287	80.259354
2806.614990	114.638344
2805.960693	118.441154
2805.306152	99.322250
2804.651611	87.848289
2803.997070	99.291275
2803.342285	133.640488
2802.687500	80.171791
2802.032471	103.061943
2801.377441	106.862381
2800.722412	72.502449
2800.067139	68.675812
2799.411621	57.220917
2798.756348	76.282654
2798.100586	61.016605
2797.445068	110.575340
2796.789307	68.622261
2796.133301	72.423309
2795.477539	99.090111
2794.821289	87.642960
2794.165283	99.059189
2793.509033	53.331238
2792.852539	95.219490
2792.196045	83.780075
2791.539551	53.306271
2790.882813	98.981903
2790.226074	53.289631
2789.569092	87.533585
2788.912109	91.325127
2788.255127	53.264675
2787.597900	60.864410
2786.940430	72.265198
2786.283203	76.056755
2785.625488	114.067314
2784.968018	106.446198
2784.310303	102.628517
2783.652588	76.009254
2782.994629	106.396332
2782.336426	129.175369
2781.678467	79.772316
2781.020264	117.740738
2780.361816	102.532364
2779.703369	87.328743
2779.044922	87.315094
2778.386230	87.301453
2777.727539	75.902443
2777.068604	75.890579
2776.409668	53.115105
2775.750732	64.486832
2775.091553	79.647758
2774.432373	68.258835
2773.772949	94.789116
2773.113525	87.192360
2772.453857	75.807587
2771.794189	87.165100
2771.134521	75.783890
2770.474609	79.560638
2769.814697	60.608150
2769.154541	94.685432
2768.494385	75.736496
2767.833984	75.724655
2767.173584	90.855377
2766.513184	102.196312
2765.852539	90.826958
2765.191895	102.164345
2764.531006	68.098907
2763.870117	87.001656
2763.209229	68.077599
2762.548096	98.318932
2761.886719	94.522644
2761.225586	49.144081
2760.563965	109.611954
2759.902588	83.140884
2759.240967	98.242035
2758.579102	64.225121
2757.917236	86.879211
2757.255371	75.535316
2756.593262	83.075844
2755.931152	98.165176
2755.269043	83.049835
2754.606689	101.908844
2753.944092	113.214317
2753.281494	98.103714
2752.618896	49.044178
2751.956055	75.440765
2751.293213	82.971848
2750.630371	71.646286
2749.967285	101.797195
2749.303955	67.854172
2748.640625	90.458054
2747.977295	90.443886
2747.313721	109.269241
2746.650146	90.415550
2745.986572	94.168114
2745.322754	94.153358
2744.658691	109.200790
2743.994873	109.183678
2743.330566	101.637840
2742.666504	112.913239
2742.002197	143.001022
2741.337646	146.741211
2740.673096	112.860161
2740.008545	101.558228
2739.343750	109.063957
2738.678955	124.087807
2738.013916	139.106949
2737.348877	97.735504
2736.683594	116.512527
2736.018311	90.189102
2735.353027	120.233284
2734.687500	120.214432
2734.021973	82.634460
2733.356201	101.399117
2732.690430	127.667755
2732.024658	86.349937
2731.358643	127.627708
2730.692383	105.088692
2730.026367	150.103149
2729.359863	105.055725
2728.693604	150.056061
2728.027100	157.534149
2727.360352	131.257858
2726.693604	104.989815
2726.026855	127.467628
2725.359863	153.686844
2724.692871	183.645691
2724.025635	161.133179
2723.358398	172.347977
2722.691162	164.828705
2722.023682	194.766998
2721.355957	179.756699
2720.688477	146.029388
2720.020508	175.956512
2719.352783	160.956223
2718.684814	145.960632
2718.016602	168.389664
2717.348389	157.139008
2716.680176	202.004150
2716.011719	201.972427
2715.343262	168.283920
2714.674561	190.691833
2714.005859	134.584854
2713.337158	171.942520
2712.668213	108.381523
2711.999023	179.361923
2711.329834	160.653152
2710.660645	100.859390
2709.991455	164.337631
2709.321777	123.233856
2708.652344	171.753540
2707.982666	123.195129
2707.312988	130.640976
2706.643066	115.692390
2705.972900	126.868484
2705.302979	138.041061
2704.632813	108.177345
2703.962402	104.430672
2703.291992	145.434143
2702.621582	123.040314
2701.950928	145.388428
2701.280273	96.910378
2700.609375	108.075348
2699.938477	115.510658
2699.267334	126.669189
2698.596191	115.474335
2697.925049	108.007393
2697.253662	119.161827
2696.582031	104.250198
2695.910645	122.846977
2695.239014	126.549706
2694.567139	126.529800
2693.895264	133.951660
2693.223145	119.049408
2692.551270	85.553299
2691.878906	107.854584
2691.206543	141.304459
2690.534180	115.256554
2689.861816	78.064735
2689.189209	115.220276
2688.516357	78.040161
2687.843506	115.184013
2687.170654	96.590744
2686.497559	66.859993
2685.824463	111.415779
2685.151123	96.545135
2684.477783	89.104561
2683.804199	111.363167
2683.130615	100.211067
2682.457031	81.640610
2681.783203	103.889870
2681.109375	96.453972
2680.435303	96.438782
2679.761230	89.006393
2679.086914	103.824440
2678.412598	100.100655
2677.738281	122.325974
2677.063721	111.187912
2676.389160	118.581764
2675.714355	96.332504
2675.039551	81.499275
2674.364502	103.710007
2673.689453	122.210396
2673.014404	107.380089
2672.339111	92.554459
2671.663574	107.346252
2670.988037	103.628326
2670.312500	118.413704
2669.636719	77.696747
2668.960938	77.684502
2668.285156	114.659042
2667.609131	96.150490
2666.932861	107.227867
2666.256592	103.514038
2665.580322	81.319633
2664.903809	144.134796
2664.227295	99.769897
2663.550781	125.616356
2662.874023	99.738434
2662.197021	84.948975
2661.520020	114.478386
2660.843018	110.768059
2660.165771	70.142036
2659.488525	103.350914
2658.811035	88.572517
2658.133545	103.318306
2657.455811	70.097786
2656.778076	114.352036
2656.100342	92.204834
2655.422363	118.003563
2654.744385	92.175735
2654.066162	77.415398
2653.387939	70.031448
2652.709473	106.873238
2652.031006	95.802261
2651.352539	95.787140
2650.673828	73.670784
2649.994873	125.220566
2649.316162	117.836044
2648.636963	139.908218
2647.958008	92.030342
2647.278809	99.377083
2646.599365	80.961128
2645.919922	88.307289
2645.240479	88.293343
2644.560791	117.705864
2643.880859	88.265457
2643.201172	121.345833
2642.520996	99.267273
2641.841064	80.871666
2641.160889	99.235916
2640.480469	84.520943
2639.800049	88.181831
2639.119629	84.494240
2638.438965	124.884789
2637.758301	84.467537
2637.077393	84.454193
2636.396484	84.440849
2635.715332	80.756737
2635.034180	73.403618
2634.353027	95.409615
2633.671631	113.739639
2632.989990	80.705696
2632.308350	113.703682
2631.626709	95.349304
2630.944824	51.333817
2630.262939	98.985283
2629.581055	106.300713
2628.898926	91.624054
2628.216553	120.924629
2627.534180	58.620850
2626.851807	113.559937
2626.169189	120.867264
2625.486572	95.213692
2624.803711	87.875664
2624.120850	117.149017
2623.437988	84.187531
2622.754883	91.493713
2622.071533	98.797577
2621.388184	80.488991
2620.704834	124.372398
2620.021240	73.148659
2619.337646	109.705627
2618.653809	91.406883
2617.969971	131.605087
2617.286133	98.688194
2616.602051	109.636192
2615.917725	105.964874
2615.233398	116.908249
2614.549072	105.931328
2613.864502	142.436829
2613.179932	127.807678
2612.495117	138.740662
2611.810303	105.864258
2611.125488	91.247841
2610.440430	87.584061
2609.755127	120.409012
2609.069824	116.741760
2608.384521	120.370872
2607.698975	105.763710
2607.013428	131.272079
2606.327637	87.500862
2605.641846	94.777580
2604.956055	94.762566
2604.270020	98.391693
2603.583740	109.306778
2602.897461	80.145599
2602.211182	94.702522
2601.524658	80.120209
2600.838135	112.878761
2600.151367	91.016830
2599.464600	69.161827
2598.777832	61.871830
2598.090820	83.695679
2597.403564	72.767311
2596.716309	94.582512
2596.029053	76.381454
2595.341553	101.825790
2594.654053	90.901474
2593.966309	101.793503
2593.278564	76.333023
2592.590820	87.223907
2591.902832	94.477577
2591.214600	94.462593
2590.526367	90.815010
2589.838135	101.696678
2589.149658	76.260414
2588.461182	90.771805
2587.772461	87.127106
2587.083740	141.559082
2586.394775	141.536636
2585.705811	87.085648
2585.016846	76.187851
2584.327637	87.058006
2583.638184	68.909988
2582.948975	112.414238
2582.259277	105.145020
2581.569824	68.877182
2580.879883	94.238029
2580.190186	123.214783
2579.500244	72.467773
2578.810059	72.456276
2578.119873	86.933723
2577.429688	90.541588
2576.739258	76.042854
2576.048584	108.615402
2575.358154	104.978218
2574.667236	68.767906
2573.976563	101.326088
2573.285645	130.255707
2572.594482	90.440987
2571.903320	72.341293
2571.212158	112.111191
2570.520752	112.093384
2569.829102	115.690918
2569.137451	115.672539
2568.445801	86.740623
2567.753906	79.499603
2567.062012	79.486969
2566.370117	111.986565
2565.677979	72.237915
2564.985596	90.283043
2564.293213	46.939720
2563.600830	72.203476
2562.908203	111.897598
2562.215332	68.571495
2561.522705	72.169052
2560.829590	86.589096
2560.136719	90.182632
2559.443604	104.595222
2558.750244	115.397064
2558.056885	97.350792
2557.363525	79.310249
2556.669922	104.528702
2555.976074	86.492760
2555.282227	79.272415
2554.588379	68.451653
2553.894287	86.451492
2553.200195	72.031448
2552.505859	100.827988
2551.811523	93.611092
2551.117188	64.797371
2550.422607	89.982025
2549.727783	71.974167
2549.032959	61.168304
2548.338135	75.548820
2547.643066	100.715736
2546.947998	50.349854
2546.252686	118.662903
2545.557373	71.905464
2544.861816	68.299316
2544.166260	104.229729
2543.470703	86.245354
2542.774902	114.975502
2542.078857	100.587547
2541.382813	61.061287
2540.686768	89.781708
2539.990479	111.311592
2539.294189	107.703743
2538.597656	93.328377
2537.901123	96.902496
2537.204346	107.652290
2536.507568	68.168922
2535.810791	64.570793
2535.113770	111.187546
2534.416504	60.964100
2533.719238	103.981018
2533.021973	89.624527
2532.324463	100.363472
2531.626953	96.763641
2530.929199	89.581688
2530.231445	96.732803
2529.533447	82.388885
2528.835449	57.304871
2528.137451	68.038689
2527.439209	103.831970
2526.740723	71.596840
2526.042236	96.640327
2525.343750	107.361023
2524.645020	93.031380
2523.946289	82.283867
2523.247314	85.847740
2522.548340	103.716141
2521.849121	118.002998
2521.149902	153.736954
2520.450684	117.965363
2519.751221	121.520683
2519.051514	89.339188
2518.351807	89.324944
2517.652100	96.455544
2516.952148	103.583870
2516.252197	71.425758
2515.552002	114.262978
2514.851807	78.543259
2514.151367	92.809044
2513.450928	85.656212
2512.750244	92.779427
2512.049561	74.925270
2511.348877	92.749809
2510.647949	96.301735
2509.946777	92.720207
2509.245605	99.836586
2508.544434	96.255623
2507.843018	57.031265
2507.141602	78.405472
2506.439941	89.082901
2505.738281	92.631424
2505.036377	81.930092
2504.334473	99.725060
2503.632568	103.270172
2502.930420	89.011787
2502.228027	96.117378
2501.525635	85.424026
2500.823242	124.556801
2500.120605	113.862312
2499.417969	88.940720
2498.715088	64.027084
2498.012207	117.364243
2497.309082	64.006630
2496.605957	99.549957
2495.902588	78.205322
2495.199219	113.735023
2494.495605	81.733978
2493.791992	103.039421
2493.088379	99.470436
2492.384521	63.935059
2491.680664	92.335876
2490.976563	78.117867
2490.272461	78.105377
2489.568115	106.490303
2488.863770	113.571495
2488.159180	106.456253
2487.454590	70.959488
2486.749756	88.685173
2486.044922	106.405190
2485.339844	88.656807
2484.634766	92.188332
2483.929688	88.628448
2483.224365	74.435989
2482.519043	85.056091
2481.813477	88.585922
2481.107666	116.914711
2480.402100	123.980606
2479.696045	88.543411
2478.990234	74.364563
2478.284180	92.055679
2477.577881	102.661049
2476.871582	88.486740
2476.165039	81.394775
2475.458496	113.226776
2474.751953	106.133110
2474.045166	127.339348
2473.338379	91.952583
2472.631348	88.401794
2471.924072	67.174606
2471.217041	67.163849
2470.509521	74.221840
2469.802246	120.149452
2469.094482	120.130211
2468.386963	74.186188
2467.679199	109.495407
2466.971191	116.540955
2466.263184	95.336418
2465.554932	88.260323
2464.846680	105.895416
2464.138428	81.173477
2463.429932	91.746628
2462.721436	105.844528
2462.012695	95.244812
2461.303955	109.337631
2460.594971	63.476192
2459.885986	84.621361
2459.176758	91.658447
2458.467529	119.841835
2457.758057	81.056480
2457.048584	144.468826
2456.338867	66.938240
2455.629150	98.630013
2454.919434	98.614197
2454.209473	102.119759
2453.499512	80.978546
2452.789307	119.688225
2452.078857	102.070641
2451.368408	84.458710
2450.657959	105.556458
2449.947266	87.949608
2449.236572	112.557434
2448.525879	84.404533
2447.814697	87.907288
2447.103760	101.956093
2446.392578	137.091370
2445.681152	98.408783
2444.969727	91.364922
2444.258301	108.917625
2443.546631	63.232342
2442.834717	98.345634
2442.122803	80.770950
2441.410889	105.336510
2440.698730	94.787636
2439.986572	94.772423
2439.274170	115.814369
2438.561768	105.268890
2437.849121	112.268791
2437.136475	119.266434
2436.423584	112.232742
2435.710693	122.734848
2434.997803	112.196701
2434.284424	98.156349
2433.571289	98.140587
2432.857910	105.133743
2432.144287	101.612961
2431.430908	133.126633
2430.717041	122.596939
2430.003174	87.555176
2429.289307	91.042755
2428.575195	98.030289
2427.861084	87.512978
2427.146729	73.499092
2426.432373	111.980621
2425.717773	66.477806
2425.003174	101.449821
2424.288330	87.442688
2423.573486	94.422928
2422.858643	87.414581
2422.143555	104.880638
2421.428223	101.368317
2420.712891	90.867332
2419.997559	118.807411
2419.281982	118.788307
2418.566162	115.275993
2417.850586	115.257462
2417.134521	101.270569
2416.418457	83.796654
2415.702393	90.765106
2414.986084	108.202530
2414.269775	157.042923
2413.553223	87.232033
2412.836670	59.308243
2412.120117	97.668449
2411.403076	101.140335
2410.686279	94.149986
2409.969238	115.053696
2409.251953	115.035179
2408.534668	115.016670
2407.817383	142.876511
2407.099854	97.558495
2406.382080	107.993805
2405.664307	87.077766
2404.946533	128.854340
2404.228516	104.459679
2403.510498	93.998581
2402.792236	97.464317
2402.073975	107.889549
2401.355469	107.872177
2400.636963	118.292366
2399.918213	114.794693
2399.199463	97.385872
2398.480469	125.190247
2397.761475	97.354507
2397.042480	83.433281
2396.323242	62.564884
2395.603760	107.733276
2394.884277	128.564163
2394.164795	107.698570
2393.445068	97.260452
2392.725098	100.717812
2392.005127	97.229118
2391.285156	107.629173
2390.564941	114.554527
2389.844727	86.769753
2389.124268	86.755768
2388.403809	90.211456
2387.683105	97.135139
2386.962402	93.650932
2386.241455	104.039810
2385.520508	114.425346
2384.799316	90.138771
2384.078125	72.792656
2383.356689	103.972740
2382.635254	97.025574
2381.913818	114.333130
2381.192139	100.458366
2380.470215	114.296257
2379.748291	93.500038
2379.026367	117.721794
2378.304199	96.931725
2377.581787	103.838669
2376.859375	69.214607
2376.136963	96.884819
2375.414307	83.030731
2374.691650	96.853561
2373.968750	103.754929
2373.245850	114.112007
2372.522705	117.550972
2371.799316	103.704704
2371.076172	82.950378
2370.352783	93.304108
2369.629150	117.475098
2368.905518	93.273994
2368.181641	124.345245
2367.457764	89.790405
2366.733643	75.964226
2366.009521	113.927948
2365.285400	120.813156
2364.561035	93.183670
2363.836426	138.027588
2363.111816	117.304504
2362.387207	96.588112
2361.662354	93.123489
2360.937256	144.835373
2360.212158	113.780838
2359.487061	96.525719
2358.761719	86.169754
2358.036377	93.048302
2357.310791	75.804886
2356.584961	93.018234
2355.859375	103.336891
2355.133301	79.212151
2354.407471	103.303497
2353.681152	141.158630
2352.955078	99.827774
2352.228516	134.229446
2351.502197	117.001625
2350.775635	151.389389
2350.048828	144.484695
2349.322021	127.263557
2348.594971	120.364983
2347.867920	123.783966
2347.140869	75.633522
2346.413330	113.431938
2345.686035	106.540047
2344.958496	106.522812
2344.230713	116.812576
2343.502930	96.183037
2342.775146	113.340240
2342.047119	96.151917
2341.319092	92.702927
2340.590820	113.285240
2339.862305	75.511276
2339.133789	99.521484
2338.405273	123.523926
2337.676514	89.197289
2336.947754	116.623726
2336.218750	68.591087
2335.489746	164.591980
2334.760498	109.710220
2334.031250	116.548241
2333.301758	89.110703
2332.572266	109.656952
2331.842529	126.770325
2331.112793	106.195778
2330.382813	85.627892
2329.652832	113.010513
2328.922607	95.872185
2328.192383	99.280106
2327.462158	92.418236
2326.731689	109.514984
2326.000977	92.388298
2325.270264	123.164444
2324.539307	99.199730
2323.808350	109.444046
2323.077393	75.230591
2322.346191	102.570549
2321.614746	129.901642
2320.883301	116.208954
2320.151855	109.355408
2319.420166	92.253670
2318.688232	81.989975
2317.956299	105.886551
2317.224365	140.020813
2316.492188	88.779289
2315.760010	119.491211
2315.027588	105.817917
2314.295166	116.039543
2313.562500	122.845482
2312.829590	109.178276
2312.096924	95.515503
2311.363770	146.660736
2310.630615	109.125175
2309.897461	129.565125
2309.164063	115.907890
2308.430664	109.072090
2307.697021	85.198746
2306.963379	139.703278
2306.229492	95.391640
2305.495605	74.938416
2304.761719	95.360687
2304.027344	122.586708
2303.293213	108.948280
2302.558838	98.718361
2301.824219	153.158798
2301.089600	105.492271
2300.354736	112.279999
2299.619873	102.056160
2298.885010	108.842239
2298.149658	95.221497
2297.414551	91.805824
2296.679199	108.789238
2295.943604	125.767136
2295.208008	112.152473
2294.472412	115.532272
2293.736572	139.295700
2293.000488	129.082367
2292.264404	139.250473
2291.528320	112.061440
2290.791992	95.066994
2290.055420	135.787933
2289.318848	118.795135
2288.582275	128.956619
2287.845459	142.507843
2287.108398	108.559769
2286.371582	84.798538
2285.634277	139.047012
2284.896973	135.633575
2284.159668	155.953262
2283.422119	138.979233
2282.684570	145.735016
2281.946777	128.768158
2281.208740	138.911469
2280.470703	152.439026
2279.732666	149.027267
2278.994385	179.480927
2278.256104	135.435287
2277.517578	118.486603
2276.779053	115.082558
2276.040283	142.137695
2275.301514	115.045135
2274.562500	125.175812
2273.823486	115.007713
2273.084229	104.842918
2272.344971	101.444389
2271.605469	94.666031
2270.865967	104.791763
2270.126221	135.193192
2269.386475	104.757668
2268.646484	125.013008
2267.906494	141.883560
2267.166260	118.217064
2266.426025	121.574905
2265.685547	101.295937
2264.945068	104.655434
2264.204346	145.143585
2263.463623	138.370193
2262.722656	155.219330
2261.981689	114.708656
2261.240723	121.436455
2260.499268	148.398163
2259.758057	165.234680
2259.016602	171.950958
2258.274902	134.841537
2257.533203	131.449081
2256.791260	117.947914
2256.049316	117.928703
2255.307129	104.434128
2254.564941	114.521996
2253.822754	117.871086
2253.080322	121.219086
2252.337646	151.499161
2251.594971	117.813484
2250.852051	164.912003
2250.109131	127.870110
2249.366211	107.662544
2248.623047	117.736717
2247.879639	127.807602
2247.136230	158.052063
2246.392578	127.765945
2245.648926	121.021690
2244.905273	117.640800
2244.161377	134.424713
2243.417236	94.081955
2242.673096	114.223747
2241.928955	124.282043
2241.184570	120.903351
2240.439941	104.094246
2239.695313	137.650574
2238.950439	124.200996
2238.205566	151.030624
2237.460693	127.516174
2236.715576	110.719666
2235.970215	134.183762
2235.224854	147.578064
2234.479492	127.432983
2233.733887	124.059242
2232.988037	144.153427
2232.242188	154.185486
2231.496338	134.052460
2230.750244	123.978287
2230.003906	103.856750
2229.257568	117.238480
2228.511230	140.663208
2227.764648	117.200211
2227.017822	147.313354
2226.270996	160.679245
2225.523926	123.836693
2224.776855	133.855652
2224.029785	184.021469
2223.282471	120.430748
2222.534912	137.134842
2221.787354	93.637772
2221.039795	120.371758
2220.291992	127.038322
2219.543945	147.072983
2218.795898	147.048950
2218.047852	120.293129
2217.299561	147.000916
2216.551025	140.296127
2215.802490	146.952881
2215.053955	136.910995
2214.305176	123.533630
2213.556152	143.542648
2212.807129	116.817947
2212.058105	153.507065
2211.308838	146.808853
2210.559326	116.760681
2209.809814	136.754440
2209.060303	110.052650
2208.310547	123.372192
2207.560547	143.355057
2206.810547	113.331978
2206.060303	146.640930
2205.310059	123.291527
2204.559814	113.276390
2203.809326	139.906769
2203.058594	123.231041
2202.307861	129.870941
2201.557129	149.826569
2200.806152	149.802063
2200.054932	146.449158
2199.303711	73.212601
2198.552246	106.473633
2197.800781	153.030807
2197.049316	143.027130
2196.297607	129.701050
2195.545654	139.655197
2194.793701	142.956924
2194.041504	129.637390
2193.289307	152.880600
2192.537109	162.824417
2191.784668	139.540939
2191.031982	146.161819
2190.279297	162.744476
2189.526367	169.359375
2188.773438	162.691177
2188.020508	139.426758
2187.267090	139.403915
2186.513916	142.699692
2185.760498	169.220749
2185.006836	179.145569
2184.253174	192.384094
2183.499268	145.922638
2182.745361	179.057541
2181.991211	179.028214
2181.237061	188.943268
2180.482666	132.570038
2179.728271	132.548309
2178.973877	205.416229
2178.218994	182.194214
2177.464355	158.979797
2176.709229	158.953735
2175.954346	135.750732
2175.198975	145.659836
2174.443848	148.945862
2173.688232	168.777649
2172.932861	129.044098
2172.177002	155.489182
2171.421387	138.925003
2170.665283	188.510162
2169.909424	195.092545
2169.153076	135.550552
2168.396729	112.389343
2167.640381	135.506104
2166.883789	138.788361
2166.127197	125.549820
2165.370361	138.742828
2164.613525	171.748657
2163.856445	132.092682
2163.099365	145.278107
2162.342041	141.953033
2161.584473	151.831818
2160.826904	132.005997
2160.069336	145.182770
2159.311523	135.261749
2158.553711	131.941025
2157.795654	125.323395
2157.037354	138.492599
2156.279053	121.985352
2155.520752	161.521652
2154.762207	171.382584
2154.003662	187.830841
2153.244873	174.621048
2152.485840	158.121399
2151.726807	125.158882
2150.967773	161.362579
2150.208252	105.362343
2149.448975	181.061783
2148.689453	141.534134
2147.929688	151.383743
2147.169922	128.326004
2146.410156	167.783356
2145.650146	131.573166
2144.889893	134.840347
2144.129639	141.394684
2143.369141	164.385406
2142.608643	161.071228
2141.847900	124.891846
2141.087158	118.299149
2140.326416	147.849625
2139.565186	101.835228
2138.804199	154.369965
2138.042725	134.641022
2137.281494	134.618881
2136.519775	173.990921
2135.758301	144.421539
2134.996338	147.679565
2134.234619	127.967911
2133.472412	111.543419
2132.710449	141.046417
2131.947998	95.108688
2131.185547	150.837234
2130.423096	150.812424
2129.660400	154.065613
2128.897705	157.317719
2128.134766	160.568741
2127.371826	167.095078
2126.608643	163.791748
2125.845215	170.315384
2125.081787	157.188339
2124.318359	150.614029
2123.554688	144.041885
2122.790771	170.203293
2122.026855	143.994476
2121.262939	111.250137
2120.498779	153.761642
2119.734375	189.717163
2118.969971	156.981461
2118.205322	147.145889
2117.440674	163.468506
2116.676025	173.248093
2115.911133	160.146378
2115.145996	150.316742
2114.380859	143.757553
2113.615479	153.533905
2112.850098	169.839325
2112.084473	156.748932
2111.318848	189.373764
2110.552979	150.168243
2109.787109	169.727432
2109.020996	176.226364
2108.254883	172.934418
2107.488525	137.019791
2106.722168	136.997208
2105.955566	182.632843
2105.188965	166.298920
2104.422119	189.093094
2103.655029	172.763474
2102.887939	179.253296
2102.120850	162.930679
2101.353516	166.161896
2100.585938	146.589264
2099.818359	166.107101
2099.050781	156.310318
2098.282959	169.308258
2097.514893	139.981812
2096.746826	117.174744
2095.978760	143.189957
2095.210449	178.957932
2094.441895	185.434891
2093.673340	165.888062
2092.904541	214.643250
2092.135742	188.594757
2091.366699	211.321320
2090.597656	165.778610
2089.828369	172.251297
2089.059082	155.975433
2088.289551	165.696548
2087.520020	155.923950
2086.750244	149.402451
2085.980469	188.345917
2085.210449	123.378677
2084.440186	146.082199
2083.670166	172.023972
2082.899658	171.995575
2082.129150	146.009857
2081.358643	149.229874
2080.587891	145.961639
2079.816895	107.020859
2079.045898	139.428391
2078.274902	136.163376
2077.503662	152.348129
2076.732178	175.009369
2075.960693	171.740082
2075.188965	168.471863
2074.417236	145.768875
2073.645264	139.267242
2072.873291	152.197174
2072.101074	178.073654
2071.328857	197.467224
2070.556396	203.907852
2069.783936	168.277084
2069.011230	155.307022
2068.238525	132.636154
2067.465576	155.255676
2066.692627	161.697922
2065.919434	155.204346
2065.145996	145.480011
2064.372559	158.385376
2063.599121	135.736450
2062.825439	190.645859
2062.051514	171.229828
2061.277588	155.050415
2060.503662	203.470016
2059.729248	180.832321
2058.955078	174.345169
2058.180664	161.404007
2057.406006	196.880325
2056.631348	200.074753
2055.856445	193.588699
2055.081543	154.845337
2054.306396	174.172165
2053.531250	135.444824
2052.755859	116.076355
2051.980225	174.085709
2051.204590	199.843094
2050.428955	186.919052
2049.653076	196.554733
2048.877197	183.635498
2048.101074	167.499390
2047.324707	177.133469
2046.548340	164.223846
2045.771851	160.977112
2044.995239	186.702515
2044.218506	151.268372
2043.441528	183.422745
2042.664551	151.218262
2041.887329	202.663254
2041.110107	196.196991
2040.332642	167.222183
2039.555176	147.902802
2038.777466	163.952026
2037.999634	186.424362
2037.221802	183.179794
2036.443726	186.362579
2035.665527	170.268616
2034.887207	176.664566
2034.108765	154.154434
2033.330200	192.661102
2032.551514	166.945282
2031.772705	173.337509
2030.993774	170.099350
2030.214600	198.951157
2029.435425	214.959961
2028.656128	176.430405
2027.876587	192.437622
2027.097046	173.165131
2026.317261	166.723953
2025.537476	198.753281
2024.757446	201.925491
2023.977295	214.710526
2023.197021	176.225677
2022.416626	243.471451
2021.636230	201.791534
2020.855591	166.530457
2020.074707	211.330505
2019.293823	188.885315
2018.512817	176.050308
2017.731689	172.820709
2016.950439	204.790558
2016.168945	195.158600
2015.387451	233.511688
2014.605713	246.265961
2013.823975	207.852341
2013.041992	175.845856
2012.260010	220.569992
2011.477783	226.925644
2010.695435	214.105545
2009.912964	230.045364
2009.130371	194.867172
2008.347656	229.968964
2007.564819	204.382904
2006.781860	236.278488
2005.998779	223.469543
2005.215576	217.048645
2004.432129	178.716248
2003.648682	197.831543
2002.864990	220.130783
2002.081299	197.765808
2001.297363	210.489899
2000.513428	204.077499
1999.729248	235.925400
1998.944946	229.510880
1998.160522	242.221222
1997.375977	226.248001
1996.591309	242.140701
1995.806519	181.575333
1995.021606	200.655167
1994.236572	184.699432
1993.451416	222.876053
1992.666016	191.004852
1991.880615	241.899246
1991.094971	206.853104
1990.309326	213.182358
1989.523438	190.877823
1988.737549	229.015289
1987.951416	181.273605
1987.165161	244.837646
1986.378784	241.617737
1985.592285	219.326965
1984.805664	225.646729
1984.018921	231.964371
1983.232056	222.394562
1982.444946	225.534088
1981.657837	266.784668
1980.870605	203.230667
1980.083130	228.596451
1979.295654	219.035141
1978.507935	218.998672
1977.720093	218.962219
1976.932129	222.098602
1976.144165	225.233932
1975.355957	260.085999
1974.567627	174.418884
1973.779053	234.633606
1972.990479	225.083939
1972.201782	218.707108
1971.412964	228.178101
1970.623901	288.343719
1969.834839	266.119110
1969.045532	250.237000
1968.256226	247.028275
1967.466675	246.987122
1966.677002	224.784149
1965.887207	284.890167
1965.097290	202.554810
1964.307251	268.973267
1963.517090	240.453659
1962.726807	237.250244
1961.936401	278.327240
1961.145874	275.118561
1960.355103	237.131622
1959.564331	246.575775
1958.773315	230.731155
1957.982178	243.333389
1957.191040	265.410339
1956.399658	243.252243
1955.608154	243.211670
1954.816528	290.542114
1954.024780	268.390869
1953.232910	255.718048
1952.440918	255.675400
1951.648682	239.852951
1950.856445	265.056396
1950.063965	277.631805
1949.271484	211.343491
1948.478760	255.462189
1947.685913	242.806244
1946.893066	274.293732
1946.099976	267.943420
1945.306763	255.291687
1944.513428	252.097855
1943.719971	264.658569
1942.926270	302.416443
1942.132568	292.917023
1941.338745	286.569885
1940.544678	245.590317
1939.750610	220.364761
1938.956299	258.098480
1938.161865	327.289734
1937.367310	261.158752
1936.572632	245.385315
1935.777832	292.525940
1934.982910	273.607574
1934.187866	270.417480
1933.392700	276.660034
1932.597290	279.757172
1931.801880	279.710419
1931.006226	282.805969
1930.210571	260.766357
1929.414673	216.745453
1928.618652	295.227081
1927.822510	235.514145
1927.026245	279.430084
1926.229858	282.522522
1925.433350	282.475281
1924.636719	276.151886
1923.839844	279.243286
1923.042969	241.552109
1922.245850	272.876892
1921.448730	275.967255
1920.651367	266.514679
1919.853882	260.200226
1919.056274	288.366486
1918.258545	272.648773
1917.460693	256.936340
1916.662720	269.424744
1915.864624	247.453415
1915.066284	281.861786
1914.267944	256.764435
1913.469360	303.682709
1912.670776	313.022583
1911.871948	309.840515
1911.072998	300.401123
1910.273926	306.608154
1909.474731	303.428711
1908.675415	309.633118
1907.875977	309.581299
1907.076294	322.035706
1906.276611	296.973511
1905.476807	296.923798
1904.676758	309.374023
1903.876587	290.575439
1903.076294	271.783112
1902.275879	312.342072
1901.475342	346.641632
1900.674683	305.992706
1899.873901	343.403656
1899.072998	321.496857
1898.271851	340.167816
1897.470703	308.908020
1896.669312	296.377197
1895.867920	343.116119
1895.066284	352.414764
1894.264526	318.055603
1893.462646	339.825989
1892.660645	380.291962
1891.858521	308.545837
1891.056152	358.351776
1890.253784	324.020325
1889.451172	361.346680
1888.648560	327.026215
1887.845703	289.603241
1887.042725	342.484039
1886.239624	333.087708
1885.436401	286.345123
1884.633057	360.983337
1883.829590	336.031555
1883.025879	373.305786
1882.222168	354.580994
1881.418213	363.851044
1880.614258	317.150269
1879.810059	320.205841
1879.005737	335.693512
1878.201294	348.068176
1877.396729	366.653168
1876.592041	332.417847
1875.787231	366.530121
1874.982178	347.834595
1874.177124	378.827667
1873.371826	366.345612
1872.566406	341.451294
1871.760986	356.911865
1870.955322	356.851959
1870.149536	353.689514
1869.343506	328.813995
1868.537476	356.672241
1867.731323	344.208466
1866.924927	393.757935
1866.118530	384.392029
1865.311890	325.438568
1864.505127	340.878387
1863.698242	384.198364
1862.891235	362.448853
1862.084106	365.485291
1861.276855	390.198395
1860.469482	346.784729
1859.661865	343.630707
1858.854126	402.382751
1858.046387	436.357178
1857.238403	362.022766
1856.430298	377.430389
1855.622070	371.180603
1854.813721	355.654938
1854.005249	395.792877
1853.196533	374.085052
1852.387817	374.022156
1851.578857	441.951874
1850.769775	401.706879
1849.960693	352.206818
1849.151367	379.948700
1848.341919	376.796295
1847.532227	382.908875
1846.722534	345.795013
1845.912720	345.736847
1845.102661	361.110779
1844.292603	379.565430
1843.482300	364.074677
1842.671875	351.673981
1841.861328	425.638977
1841.050659	391.645325
1840.239868	385.412811
1839.428833	410.010223
1838.617798	440.763855
1837.806519	462.261902
1836.995117	440.615509
1836.183716	412.814941
1835.372070	381.943573
1834.560303	354.162201
1833.748291	431.081421
1832.936279	452.559265
1832.124146	403.233215
1831.311768	415.475708
1830.499390	378.480774
1829.686768	372.263916
1828.874023	390.657471
1828.061157	387.516144
1827.248169	405.900909
1826.434937	381.236603
1825.621704	359.654602
1824.808228	393.401978
1823.994751	424.065063
1823.181030	374.834930
1822.367188	408.562653
1821.553223	442.278992
1820.739136	469.842224
1819.924927	411.426453
1819.110474	432.845917
1818.296021	389.802582
1817.481323	408.149628
1816.666626	395.807709
1815.851685	392.673218
1815.036621	389.539795
1814.221436	423.208069
1813.406006	432.335327
1812.590576	450.656555
1811.774902	413.798462
1810.959229	422.922668
1810.143311	432.043732
1809.327271	416.652740
1808.511108	389.014496
1807.694824	398.136627
1806.878418	419.503967
1806.061768	456.171875
1805.245117	446.911774
1804.428223	471.320557
1803.611206	422.280914
1802.794067	413.031158
1801.976807	474.140930
1801.159424	419.008667
1800.341919	412.822052
1799.524170	498.360260
1798.706421	434.081024
1797.888428	434.007751
1797.070313	433.934479
1796.252075	461.359436
1795.433716	473.500916
1794.615234	476.475281
1793.796509	445.856689
1792.977783	418.301697
1792.158813	454.864410
1791.339844	418.160400
1790.520630	411.986267
1789.701294	479.043823
1788.881714	427.100647
1788.062134	481.932159
1787.242432	454.403534
1786.422485	426.884186
1785.602417	429.860687
1784.782349	454.173187
1783.962036	441.905914
1783.141479	450.972565
1782.320923	420.430359
1781.500244	475.188751
1780.679321	459.880585
1779.858398	438.487457
1779.037231	471.903229
1778.215942	447.471252
1777.394531	462.613129
1776.572998	492.964813
1775.751221	486.796478
1774.929443	462.378448
1774.107422	437.968658
1773.285278	468.303894
1772.463013	446.941742
1771.640625	425.586792
1770.818115	501.499573
1769.995483	455.831543
1769.172607	452.716064
1768.349731	467.828705
1767.526611	458.637512
1766.703369	488.928101
1765.880005	464.554901
1765.056519	437.154114
1764.232910	476.538757
1763.409058	485.562378
1762.585083	503.685669
1761.761108	512.701599
1760.936890	503.515106
1760.112549	494.331726
1759.288086	485.151428
1758.463379	427.467285
1757.638672	451.644257
1756.813721	481.874298
1755.988647	490.883118
1755.163574	527.155518
1754.338257	499.804169
1753.512695	481.547882
1752.687134	511.747192
1751.861328	547.991394
1751.035522	478.276062
1750.209473	499.380859
1749.383301	529.556641
1748.557007	499.211609
1747.730591	462.826843
1746.903931	456.699402
1746.077271	483.837860
1745.250366	544.225342
1744.423340	498.788635
1743.596313	519.861206
1742.768921	513.729187
1741.941528	534.792053
1741.114014	564.910461
1740.286255	546.692261
1739.458374	419.764282
1738.630493	461.964325
1737.802368	498.112335
1736.973999	485.954437
1736.145630	506.996857
1735.317139	540.101440
1734.488403	512.858459
1733.659546	527.852966
1732.830566	536.810730
1732.001465	485.459900
1731.172241	485.377533
1730.342896	527.494690
1729.513306	542.473877
1728.683594	530.328918
1727.853882	551.327881
1727.023926	472.916870
1726.193726	499.941864
1725.363525	514.912903
1724.533203	538.910889
1723.702637	535.809204
1722.871948	559.795410
1722.041138	544.654663
1721.210205	538.544861
1720.379150	505.364075
1719.547974	565.430420
1718.716553	481.135620
1717.885010	532.165833
1717.053467	535.081543
1716.221558	565.046265
1715.389648	486.818817
1714.557617	459.695221
1713.725342	519.697754
1712.893066	558.655212
1712.060547	576.578369
1711.227905	537.447815
1710.395142	543.360413
1709.562256	528.260681
1708.729126	546.176697
1707.895874	498.076447
1707.062622	584.990295
1706.229126	554.896423
1705.395508	521.813843
1704.561646	482.745636
1703.727783	593.586243
1702.893677	581.495667
1702.059570	515.465149
1701.225220	572.308716
1700.390747	524.277405
1699.556030	545.155762
1698.721313	592.980591
1697.886353	547.964600
1697.051392	589.784973
1696.216187	586.691284
1695.380859	577.613037
1694.545410	541.607056
1693.709717	538.523071
1692.874023	571.335571
1692.038086	484.505768
1691.202026	544.228638
1690.365845	562.074524
1689.529541	514.150818
1688.692993	529.007019
1687.856445	600.634460
1687.019653	555.716370
1686.182739	552.634460
1685.345703	546.566956
1684.508545	519.598083
1683.671143	531.452332
1682.833740	549.272888
1681.996094	564.102661
1681.158325	581.911499
1680.320435	650.436401
1679.482422	563.814331
1678.644287	560.735657
1677.805908	566.604309
1676.967407	551.599670
1676.128784	569.392334
1675.290039	593.140076
1674.451172	551.317627
1673.612183	569.101196
1672.772949	646.460205
1671.933594	533.164307
1671.094116	580.722412
1670.254517	556.802917
1669.414795	613.271912
1668.574829	592.331543
1667.734863	586.278442
1666.894653	612.958191
1666.054321	529.553101
1665.213867	580.029480
1664.373169	624.540527
1663.532471	588.752075
1662.691528	671.895264
1661.850464	597.468628
1661.009277	612.226501
1660.167969	618.065002
1659.326538	644.698120
1658.484863	600.031311
1657.643066	564.289551
1656.801147	620.612549
1655.959106	635.351257
1655.116943	623.369080
1654.274658	593.583496
1653.432129	602.384399
1652.589478	596.347717
1651.746704	640.741821
1650.903809	536.826233
1650.060791	622.730713
1649.217529	646.343384
1648.374146	658.090454
1647.530640	601.664612
1646.687012	604.525208
1645.843262	660.716125
1644.999390	598.393921
1644.155273	654.566650
1643.311035	595.228149
1642.466675	636.578003
1641.622192	595.024719
1640.777588	651.159546
1639.932739	630.333069
1639.087769	606.554871
1638.242798	653.783997
1637.397461	647.756653
1636.552124	638.774048
1635.706665	641.621582
1634.860962	582.386353
1634.015137	608.888733
1633.169189	691.531982
1632.323120	573.223328
1631.476929	564.262573
1630.630493	679.362244
1629.783936	664.479797
1628.937256	646.649719
1628.090454	619.968994
1627.243530	611.007751
1626.396484	664.025208
1625.549194	596.045105
1624.701782	590.042664
1623.854248	613.539368
1623.006592	663.570801
1622.158691	628.072815
1621.310791	630.913513
1620.462646	642.596313
1619.614380	627.750366
1618.765991	716.043274
1617.917358	654.051025
1617.068726	680.450073
1616.219849	650.881897
1615.370850	665.493713
1614.521729	612.384949
1613.672363	656.434875
1612.822998	653.379272
1611.973389	691.521729
1611.123657	673.750427
1610.273804	635.393738
1609.423828	635.284851
1608.573608	620.472900
1607.723389	626.246826
1606.872925	629.079102
1606.022339	664.240723
1605.171509	672.942749
1604.320679	684.579834
1603.469604	652.148804
1602.618408	628.540222
1601.767090	631.369080
1600.915649	616.580322
1600.064087	660.508545
1599.212280	625.174194
1598.360352	686.693359
1597.508301	674.839233
1596.656128	660.055603
1595.803833	686.340088
1594.951294	712.615540
1594.098633	656.783997
1593.245850	615.629333
1592.392944	647.765442
1591.539795	612.487549
1590.686646	638.753052
1589.833252	688.445923
1588.979736	632.675720
1588.126099	696.995300
1587.272217	699.803711
1586.418335	693.828552
1585.564209	620.533325
1584.709961	640.912598
1583.855591	719.805664
1583.000977	649.469177
1582.146362	628.882446
1581.291504	687.265137
1580.436523	698.843262
1579.581421	730.882019
1578.726074	660.603882
1577.870605	689.715698
1577.015137	648.688904
1576.159424	671.949646
1575.303467	689.360352
1574.447510	756.413818
1573.591309	706.643616
1572.734985	700.683167
1571.878540	659.696594
1571.021973	656.664734
1570.165161	650.715881
1569.308350	749.799316
1568.451294	702.998352
1567.594116	697.044495
1566.736694	667.764648
1565.879272	661.818848
1565.021606	702.515076
1564.163818	687.821838
1563.305908	731.413513
1562.447876	710.893311
1561.589600	745.726990
1560.731201	696.086365
1559.872681	684.318665
1559.014038	666.731995
1558.155273	698.638245
1557.296265	707.249512
1556.437134	695.487915
1555.577881	663.363831
1554.718506	738.883484
1553.859009	654.410156
1552.999268	758.985168
1552.139404	697.797302
1551.279419	674.421265
1550.419312	709.183044
1549.558960	709.060974
1548.698608	656.640198
1547.838013	705.911926
1546.977173	711.599365
1546.116333	667.917053
1545.255249	676.512512
1544.394165	769.291626
1543.532837	725.621826
1542.671265	687.771057
1541.809692	664.440674
1540.947876	678.831177
1540.085938	678.714294
1539.223877	690.197327
1538.361694	698.776917
1537.499268	724.747437
1536.636841	744.911987
1535.774170	715.803711
1534.911377	683.807983
1534.048340	759.011963
1533.185303	782.053101
1532.322021	689.246521
1531.458618	747.037598
1530.594971	680.323914
1529.731323	714.940613
1528.867432	732.181335
1528.003418	743.629089
1527.139282	711.677917
1526.275024	699.985168
1525.410522	731.676514
1524.545898	714.201294
1523.681152	711.187134
1522.816284	748.641052
1521.951172	734.061890
1521.086060	725.266724
1520.220703	684.695496
1519.355225	725.016541
1518.489502	646.915100
1517.623779	695.891235
1516.757813	710.206238
1515.891724	692.764526
1515.025513	686.872925
1514.159058	747.350403
1513.292480	698.175964
1512.425781	715.362610
1511.558960	695.050964
1510.692017	706.465088
1509.824829	712.109192
1508.957520	680.278320
1508.090088	714.745300
1507.222534	659.872620
1506.354736	757.714111
1505.486938	691.330750
1504.618896	679.691162
1503.750610	748.682922
1502.882324	711.125916
1502.013794	765.695618
1501.145142	653.319092
1500.276367	756.798401
1499.407471	768.175903
1498.538330	776.672852
1497.669067	785.166870
1496.799683	744.773132
1495.930176	718.768738
1495.060547	750.264893
1494.190674	741.512939
1493.320679	675.292297
1492.450562	735.510437
1491.580200	732.510681
1490.709717	712.279358
1489.839233	738.000610
1488.968384	757.970642
1488.097534	803.769287
1487.226440	763.448730
1486.355347	800.621643
1485.483887	711.540588
1484.612427	748.709534
1483.740845	762.920654
1482.869019	739.847656
1481.997070	794.195129
1481.124878	765.391357
1480.252686	805.384888
1479.380249	765.126526
1478.507690	785.050110
1477.635010	796.372864
1476.762207	707.446228
1475.889160	798.960815
1475.015991	818.864685
1474.142700	875.976257
1473.269165	844.340698
1472.395630	869.949585
1471.521851	918.439026
1470.647949	924.001343
1469.773804	938.142334
1468.899658	955.138000
1468.025269	1017.874939
1467.150757	1052.003052
1466.276001	1123.276123
1465.401245	1114.508301
1464.526245	1162.887939
1463.651123	1136.975952
1462.775879	1202.472290
1461.900391	1199.408081
1461.024780	1173.503174
1460.149048	1261.796875
1459.273193	1178.804932
1458.397217	1232.821899
1457.520996	1175.542969
1456.644653	1218.130737
1455.768188	1203.658203
1454.891479	1220.560181
1454.014648	1194.687012
1453.137695	1146.016479
1452.260620	1117.314819
1451.383423	1176.966797
1450.505981	1145.420288
1449.628418	1153.768066
1448.750732	1201.989380
1447.872803	1136.280884
1446.994873	1130.389160
1446.116699	1212.751221
1445.238403	1198.309082
1444.359863	1203.792847
1443.481201	1260.490967
1442.602417	1354.152588
1441.723511	1470.536499
1440.844482	1549.909668
1439.965210	1737.303589
1439.085815	1771.116577
1438.206299	1759.439575
1437.326538	1827.339600
1436.446777	1665.062378
1435.566772	1602.273315
1434.686646	1482.697510
1433.806274	1417.121826
1432.925781	1272.064697
1432.045166	1189.514648
1431.164429	1166.600464
1430.283569	1030.176147
1429.402466	1044.184570
1428.521240	1004.285645
1427.639893	938.872253
1426.758301	924.529236
1425.876709	887.507263
1424.994873	890.188049
1424.112793	907.040344
1423.230713	762.348267
1422.348389	847.221252
1421.465942	844.240967
1420.583374	827.098999
1419.700562	886.428040
1418.817627	920.252502
1417.934570	976.713562
1417.051392	999.188232
1416.167969	1134.857788
1415.284546	1123.342163
1414.400757	1236.310181
1413.516968	1125.780029
1412.633057	998.319641
1411.748901	887.869263
1410.864624	828.345337
1409.980103	780.148560
1409.095459	763.056030
1408.210815	686.630920
1407.325806	743.014465
1406.440796	675.093384
1405.555542	691.920898
1404.670166	646.621643
1403.784668	680.387329
1402.899048	584.297302
1402.013184	598.306641
1401.127197	623.597839
1400.241089	640.416565
1399.354736	631.842896
1398.468262	600.710266
1397.581665	586.506958
1396.694946	623.055115
1395.807983	614.490295
1394.920898	710.204529
1394.033691	608.640686
1393.146362	591.630920
1392.258789	642.230286
1391.371094	625.220520
1390.483276	594.137573
1389.595337	675.678528
1388.707153	672.745972
1387.818848	613.527466
1386.930420	658.442200
1386.041748	655.514099
1385.152954	686.341431
1384.264038	601.850281
1383.375000	677.666504
1382.485718	612.886047
1381.596313	604.346497
1380.706787	604.241089
1379.817139	592.895996
1378.927246	595.602051
1378.037231	578.644470
1377.147095	603.819702
1376.256714	654.257935
1375.366333	648.528809
1374.475586	600.696777
1373.584839	637.076538
1372.693970	622.935303
1371.802856	620.021118
1370.911499	636.743103
1370.020142	633.827454
1369.128540	678.581726
1368.236816	709.302551
1367.344971	664.329529
1366.453003	672.621338
1365.560791	669.701782
1364.668457	649.973633
1363.775879	675.070190
1362.883301	627.341614
1361.990479	613.231323
1361.097534	618.723572
1360.204346	655.004639
1359.311035	652.091614
1358.417603	587.619385
1357.524048	649.066101
1356.630249	598.602966
1355.736450	590.108215
1354.842285	592.801331
1353.948120	603.880737
1353.053711	570.232178
1352.159180	600.874939
1351.264526	617.535645
1350.369751	569.933228
1349.474731	586.593445
1348.579590	569.734009
1347.684204	572.426758
1346.788818	555.575684
1345.893188	597.348816
1344.997314	602.826050
1344.101440	647.366638
1343.205322	624.934326
1342.309082	624.825073
1341.412720	619.138000
1340.516113	610.664429
1339.619385	596.617920
1338.722534	599.301025
1337.825439	668.870178
1336.928223	540.575439
1336.030884	585.056580
1335.133423	582.168762
1334.235718	537.506714
1333.337891	598.672119
1332.439941	565.158936
1331.541870	565.060059
1330.643555	576.093384
1329.745117	584.340271
1328.846436	645.443848
1327.947754	598.043701
1327.048828	589.595642
1326.149780	614.518005
1325.250488	583.828918
1324.351074	542.031921
1323.451538	600.299438
1322.551880	591.858276
1321.651978	622.314697
1320.751953	563.873901
1319.851807	619.319458
1318.951416	608.104004
1318.050903	574.682556
1317.150269	657.854614
1316.249512	616.110291
1315.348511	627.101440
1314.447388	635.314453
1313.546021	671.262634
1312.644653	629.545105
1311.743042	662.708862
1310.841309	720.812073
1309.939331	717.913879
1309.037231	662.360352
1308.135010	678.869629
1307.232666	750.781250
1306.330078	711.870605
1305.427368	731.131836
1304.524536	731.003662
1303.621460	719.801575
1302.718262	813.786682
1301.814941	844.086365
1300.911499	810.734192
1300.007813	838.257202
1299.104004	901.729065
1298.199951	945.819702
1297.295898	1097.732544
1296.391602	1346.352417
1295.487061	1724.797729
1294.582520	2177.727539
1293.677734	2423.263916
1292.772827	2295.756836
1291.867676	1842.359863
1290.962402	1367.028442
1290.057007	1046.490601
1289.151489	847.536133
1288.245728	767.340942
1287.339844	692.693359
1286.433838	651.182983
1285.527588	659.344910
1284.621216	548.897827
1283.714722	570.863770
1282.808105	568.006226
1281.901245	559.635925
1280.994263	534.730530
1280.087036	570.462708
1279.179810	473.924377
1278.272217	520.674194
1277.364624	534.354736
1276.456787	506.721619
1275.548828	509.385986
1274.640747	517.555298
1273.732544	555.998901
1272.824097	536.637268
1271.915405	575.063904
1271.006714	484.179199
1270.097778	478.592987
1269.188721	495.009155
1268.279541	544.414307
1267.370117	500.333191
1266.460571	448.021790
1265.550781	469.927917
1264.640991	461.602356
1263.730957	510.969849
1262.820679	494.399933
1261.910400	499.805328
1260.999878	483.243164
1260.089233	455.705963
1259.178345	488.562561
1258.267334	433.591583
1257.356201	441.746552
1256.444824	460.871796
1255.533447	438.848236
1254.621704	496.359680
1253.709961	449.661072
1252.797974	444.099213
1251.885864	457.725342
1250.973633	449.423584
1250.061157	405.505951
1249.148560	438.307617
1248.235840	421.796753
1247.322876	402.553253
1246.409790	413.434235
1245.496582	424.311371
1244.583130	426.973633
1243.669556	448.790619
1242.755859	445.975494
1241.841919	454.103607
1240.927856	410.262268
1240.013672	432.066772
1239.099365	456.597656
1238.184814	423.713562
1237.270142	371.708923
1236.355225	423.564178
1235.440186	415.292908
1234.525024	453.463623
1233.609741	415.146484
1232.694214	395.958069
1231.778564	384.967163
1230.862671	390.358826
1229.946777	403.936493
1229.030640	431.153442
1228.114258	401.065643
1227.197876	420.089905
1226.281128	381.832520
1225.364380	474.479553
1224.447388	417.141174
1223.530273	496.119568
1222.613037	485.130219
1221.695557	425.095245
1220.777954	395.050842
1219.860229	460.357300
1218.942261	419.423126
1218.024170	413.902985
1217.105957	416.552490
1216.187500	481.808960
1215.268921	397.354156
1214.350220	402.726257
1213.431274	391.772552
1212.512207	454.267090
1211.593018	399.793213
1210.673706	418.757019
1209.754150	388.777100
1208.834351	443.073242
1207.914551	421.252869
1206.994507	372.267395
1206.074219	380.352020
1205.153931	412.880646
1204.233398	380.217590
1203.312744	393.727203
1202.391846	388.227844
1201.470825	390.873627
1200.549683	390.804535
1199.628296	415.156403
1198.706787	409.657074
1197.785156	387.884796
1196.863281	431.208252
1195.941284	412.151337
1195.019165	422.922607
1194.096802	382.189362
1193.174438	365.861267
1192.251709	419.988647
1191.328979	390.113983
1190.406006	381.919006
1189.482788	414.349457
1188.559570	419.691498
1187.636108	460.225372
1186.712402	416.836243
1185.788696	408.643738
1184.864746	441.040680
1183.940552	403.088501
1183.016357	451.703796
1182.091919	408.354492
1181.167236	389.355194
1180.242554	427.133545
1179.317505	375.702850
1178.392456	381.041168
1177.467163	475.541626
1176.541748	434.935486
1175.616211	456.466309
1174.690430	421.278900
1173.764526	410.404144
1172.838501	431.927856
1171.912231	466.939240
1170.985840	510.033997
1170.059204	553.113464
1169.132446	577.294189
1168.205566	596.071960
1167.278564	558.212830
1166.351318	566.202515
1165.423828	506.796204
1164.496338	490.534882
1163.568604	468.889771
1162.640747	487.666687
1161.712646	433.703949
1160.784424	471.333771
1159.856079	471.250183
1158.927490	476.551392
1157.998779	411.861176
1157.069946	427.936707
1156.140869	400.951324
1155.211670	387.427826
1154.282349	384.669098
1153.352783	414.185547
1152.423096	492.094208
1151.493164	405.972900
1150.563232	443.534058
1149.632935	440.767731
1148.702637	386.946899
1147.772095	475.537811
1146.841431	427.102203
1145.910522	478.054688
1144.979492	424.265350
1144.048340	424.190033
1143.116943	469.747314
1142.185425	477.715302
1141.253784	440.064026
1140.321899	456.082916
1139.389893	469.413757
1138.457764	493.467377
1137.525391	506.786774
1136.592896	538.867981
1135.660278	517.328552
1134.727417	546.716492
1133.794434	640.402100
1132.861206	699.226929
1131.927856	819.637634
1130.994385	1063.197144
1130.060669	1263.828369
1129.126831	1472.419556
1128.192871	1587.253906
1127.258667	1627.114380
1126.324341	1428.823364
1125.389893	1195.824951
1124.455200	976.282959
1123.520386	837.047180
1122.585327	764.705872
1121.650146	660.310364
1120.714844	641.482971
1119.779297	566.542542
1118.843628	563.769836
1117.907837	528.941101
1116.971802	488.782837
1116.035645	464.661652
1115.099365	512.638855
1114.162842	421.784027
1113.226196	440.392273
1112.289307	458.993866
1111.352417	461.580292
1110.415161	453.495270
1109.477905	448.080261
1108.540405	437.333832
1107.602661	477.248901
1106.664917	445.175293
1105.726807	455.756989
1104.788696	455.675842
1103.850342	431.616028
1102.911865	514.117676
1101.973145	492.719299
1101.034302	458.014191
1100.095337	415.334229
1099.156128	404.612549
1098.216797	476.399628
1097.277344	439.061096
1096.337646	444.303864
1095.397827	513.385437
1094.457764	444.145538
1093.517700	499.907074
1092.577271	489.183533
1091.636841	542.258972
1090.696167	534.189331
1089.755249	478.293243
1088.814209	486.178131
1087.873047	525.934998
1086.931763	536.464294
1085.990234	480.607513
1085.048584	501.760345
1084.106689	538.831665
1083.164673	501.581390
1082.222412	559.866638
1081.280151	525.278809
1080.337524	488.050781
1079.394897	522.439392
1078.452026	551.512756
1077.509033	516.950928
1076.565796	522.159790
1075.622437	503.516052
1074.678955	508.725403
1073.735229	487.441498
1072.791382	521.787170
1071.847290	519.045837
1070.903076	521.600891
1069.958740	566.510986
1069.014160	592.877563
1068.069458	571.601257
1067.124512	621.769958
1066.179565	735.409302
1065.234253	856.942688
1064.288940	1023.387573
1063.343384	1250.583618
1062.397583	1353.455444
1061.451660	1358.499634
1060.505615	1308.049072
1059.559448	1262.900513
1058.613037	1075.122681
1057.666382	900.617493
1056.719727	771.065430
1055.772827	667.961243
1054.825684	583.371765
1053.878418	577.989075
1052.931030	554.137024
1051.983398	451.145172
1051.035645	490.631592
1050.087769	453.621216
1049.139648	490.456146
1048.191406	448.186218
1047.242920	424.382813
1046.294312	419.036011
1045.345581	429.500946
1044.396606	403.079102
1043.447510	397.738922
1042.498291	450.338989
1041.548828	502.920227
1040.599121	473.871429
1039.649414	447.465149
1038.699341	407.909943
1037.749268	402.574524
1036.798950	426.179077
1035.848511	415.581757
1034.897827	394.468994
1033.947021	444.355530
1032.996094	404.843201
1032.044922	433.682892
1031.093506	407.326141
1030.142090	378.351379
1029.190430	399.299377
1028.238525	404.480865
1027.286499	456.928986
1026.334351	388.582611
1025.381958	367.512299
1024.429443	417.314209
1023.476807	372.628937
1022.523926	388.304230
1021.570923	401.350708
1020.617737	364.560455
1019.664368	398.584595
1018.710815	367.051605
1017.757080	429.897675
1016.803223	403.612030
1015.849121	427.123169
1014.894897	382.507996
1013.940491	395.536652
1012.985962	387.608826
1012.031189	400.631866
1011.076294	361.289429
1010.121216	395.253052
1009.165955	395.182159
1008.210510	395.111267
1007.254944	397.656555
1006.299133	392.353851
1005.343201	379.207336
1004.387085	379.139313
1003.430786	384.299835
1002.474365	410.369049
1001.517700	407.682068
1000.560913	410.221771
999.603943	370.962006
998.646790	399.626770
997.689514	399.555023
996.731995	349.874268
995.774353	409.853729
994.816528	391.509674
993.858521	396.658569
992.900330	365.277832
991.942017	427.820038
990.983459	432.959595
990.024780	432.881836
989.065918	401.517029
988.106873	357.129547
987.147705	401.372772
986.188293	370.030487
985.228760	416.860840
984.269043	401.156464
983.309143	328.159943
982.349060	408.824249
981.388794	354.077087
980.428406	398.265137
979.467834	390.385834
978.507019	400.724091
977.546082	398.050385
976.585022	395.377655
975.623718	392.705872
974.662292	410.836884
973.700623	395.164429
972.738831	428.884247
971.776855	358.638672
970.814758	387.156158
969.852417	402.673889
968.889954	384.419464
967.927246	418.110809
966.964417	363.509186
966.001404	340.079529
965.038208	358.187256
964.074890	391.859009
963.111328	472.221893
962.147644	428.036194
961.183777	381.272705
960.219727	383.797302
959.255493	362.986145
958.291077	412.174316
957.326538	422.467407
956.361755	419.799988
955.396851	354.952118
954.431763	409.287109
953.466492	354.824280
952.501038	367.707825
951.535461	357.285492
950.569641	370.163910
949.603699	403.742432
948.637573	362.267670
947.671265	429.468567
946.704773	431.977875
945.738098	462.934753
944.771240	416.307617
943.804260	429.159058
942.837097	418.742401
941.869751	390.238922
940.902222	369.497375
939.934509	405.598816
938.966614	423.606445
937.998535	395.122589
937.030334	405.379456
936.061951	456.937744
935.093323	433.625397
934.124573	407.740814
933.155640	397.346588
932.186584	407.593719
931.217285	435.891876
930.247864	366.186249
929.278198	433.156281
928.308411	445.967346
927.338440	427.845215
926.368286	425.191071
925.397949	417.384979
924.427429	396.701782
923.456787	458.442657
922.485901	370.808014
921.514893	411.934509
920.543701	411.860138
919.572327	422.080444
918.600769	406.565033
917.629028	409.064362
916.657104	465.580353
915.685059	460.352661
914.712769	452.555511
913.740356	457.615509
912.767761	444.680786
911.794983	431.750732
910.822021	426.533752
909.848877	434.163727
908.875549	452.065155
907.902039	449.415375
906.928406	421.090271
905.954590	433.849976
904.980530	418.371368
904.006348	449.090515
903.031982	395.128235
902.057434	436.101654
901.082703	420.633759
900.107849	410.300201
899.132751	451.248596
898.157532	422.969055
897.182068	435.707489
896.206482	479.191528
895.230713	409.929291
894.254761	432.909485
893.278625	455.881348
892.302307	412.267517
891.325806	476.198029
890.349182	455.633942
889.372314	486.262817
888.395325	437.557343
887.418091	388.869446
886.440735	460.419952
885.463196	473.123749
884.485474	478.152008
883.507568	460.169952
882.529480	495.871155
881.551270	419.114136
880.572815	439.479126
879.594238	475.164612
878.615417	487.849487
877.636475	439.240387
876.657349	436.607574
875.677979	433.975677
874.698486	456.868073
873.718811	497.615295
872.739014	586.824524
871.758972	589.269104
870.778748	535.602112
869.798401	474.304474
868.817810	410.479462
867.837097	476.681641
866.856140	474.046600
865.875061	481.605194
864.893799	471.327026
863.912354	489.072327
862.930725	524.638733
861.948914	493.987640
860.966919	526.994324
859.984741	506.535522
859.002441	501.353760
858.019897	427.472870
857.037231	450.291473
856.054321	485.819611
855.071289	429.783356
854.088074	432.247986
853.104614	470.302185
852.121033	470.216827
851.137268	487.920258
850.153320	490.372498
849.169189	518.227112
848.184937	477.495148
847.200439	485.026672
846.215759	441.776550
845.230896	487.389069
844.245911	461.920319
843.260681	449.148651
842.275330	553.088257
841.289795	509.864899
840.304016	524.989380
839.318115	453.893860
838.332031	458.881927
837.345764	456.263763
836.359314	458.715210
835.372681	461.165741
834.385864	423.080688
833.398865	423.003815
832.411743	415.329437
831.424377	432.978210
830.436829	470.873138
829.449158	491.036499
828.461243	539.029663
827.473206	564.233643
826.484924	503.417389
825.496521	541.265015
824.507935	515.878418
823.519104	462.689117
822.530151	457.549194
821.541016	434.719055
820.551697	457.382751
819.562195	533.095093
818.572510	447.112122
817.582642	515.221924
816.592590	558.055542
815.602356	497.361694
814.611938	519.989136
813.621399	454.276764
812.630615	451.670807
811.639648	413.745972
810.648560	441.416840
809.657227	481.687256
808.665771	458.906403
807.674072	446.217834
806.682251	446.136566
805.690186	423.374542
804.697998	478.729248
803.705566	453.450378
802.713013	448.330383
801.720276	445.730469
800.727356	458.238220
799.734253	422.912079
798.740906	510.925659
797.747437	561.160889
796.753784	553.510742
795.759949	485.491425
794.765930	467.797638
793.771729	510.460297
792.777344	525.451965
791.782776	495.192230
790.788025	520.234009
789.793091	482.447937
788.798035	452.212463
787.802734	535.020508
786.807251	477.161316
785.811584	469.541565
784.815796	494.560516
783.819763	486.940308
782.823547	466.775146
781.827148	451.635468
780.830627	459.078949
779.833862	443.946198
778.836975	438.849762
777.839844	446.291443
776.842529	473.784790
775.845093	433.596863
774.847412	433.517731
773.849609	435.944031
772.851563	493.478699
771.853394	483.370575
770.854980	460.745850
769.856445	490.704895
768.857666	548.187500
767.858765	495.531067
766.859680	477.924988
765.860352	535.378357
764.860901	522.774048
763.861206	490.167419
762.861389	457.572723
761.861389	472.488770
760.861145	457.405548
759.860779	457.321960
758.860168	454.739838
757.859436	424.679352
756.858521	452.075989
755.857361	489.451355
754.856079	471.884705
753.854614	474.294708
752.852905	489.183014
751.851074	506.561188
750.848999	536.407593
749.846802	591.187683
748.844421	591.079590
747.841797	521.152100
746.839050	501.112000
745.836121	568.321594
744.832947	528.342712
743.829651	538.212952
742.826111	533.131958
741.822449	485.708923
740.818604	505.542938
739.814514	540.309082
738.810303	500.379028
737.805847	480.375519
736.801270	467.844910
735.796448	497.616241
734.791504	482.599396
733.786316	529.767273
732.781006	539.617188
731.775452	519.628296
730.769775	571.735046
729.763855	541.806152
728.757751	494.493927
727.751526	573.905396
726.745056	541.508484
725.738403	558.794006
724.731628	474.267120
723.724609	506.454285
722.717407	553.522583
721.710083	513.713806
720.702515	550.838501
719.694763	540.814392
718.686829	560.557983
717.678711	520.777039
716.670410	555.393677
715.661987	530.502014
714.653320	483.312775
713.644470	490.658356
712.635437	500.478882
711.626221	475.615448
710.616821	517.632324
709.607178	606.682556
708.597412	505.063446
707.587463	519.822876
706.577332	502.403290
705.567017	532.004395
704.556458	534.380737
703.545776	512.020935
702.534912	472.357758
701.523804	546.449768
700.512573	553.765991
699.501099	558.607788
698.489502	514.022522
697.477661	550.990295
696.465698	501.482056
695.453491	513.739502
694.441101	506.236816
693.428589	528.364807
692.415833	501.113861
691.402893	503.489899
690.389771	476.253448
689.376465	537.845520
688.362976	525.413086
687.349304	488.322449
686.335449	490.698547
685.321411	507.865967
684.307190	532.421814
683.292725	559.433044
682.278137	556.866272
681.263367	549.373230
680.248352	571.440186
679.233215	615.662903
678.217834	544.145935
677.202332	536.660706
676.186584	452.878021
675.170654	472.481506
674.154541	484.696564
673.138306	541.185974
672.121826	516.491577
671.105164	545.904968
670.088318	513.843018
669.071289	476.876617
668.054016	513.653992
667.036621	523.388367
666.019043	523.292114
665.001282	496.176300
663.983276	520.643677
662.965149	535.280334
661.946777	471.352814
660.928223	542.446838
659.909546	544.801086
658.890625	547.154358
657.871521	571.585205
656.852234	571.479980
655.832764	502.711670
654.813110	595.787537
653.793274	514.783264
652.773254	507.335785
651.752991	543.999023
650.732605	509.598907
649.711975	541.349121
648.691223	499.614807
647.670227	563.187439
646.649048	572.876404
645.627747	626.621094
644.606201	592.243591
643.584473	631.283813
642.562561	579.793396
641.540466	604.145874
640.518127	584.470642
639.495667	577.027771
638.473022	655.148010
637.450134	557.261963
636.427063	571.821289
635.403870	525.294495
634.380432	564.282104
633.356812	520.216125
632.333008	546.980835
631.309021	576.177063
630.284851	573.629761
629.260498	622.334534
628.235901	636.860168
627.211182	605.027466
626.186218	665.895264
625.161133	641.385132
624.135803	658.334656
623.110291	580.202698
622.084595	611.781494
621.058716	577.551575
620.032654	662.721680
619.006409	660.163269
617.979919	689.268311
616.953308	674.530273
615.926453	606.234741
614.899414	637.767700
613.872253	778.809082
612.844849	749.465271
611.817261	688.504822
610.789490	661.620911
609.761475	639.610840
608.733337	617.608887
607.705017	673.409668
606.676453	602.796875
605.647705	661.009888
604.618774	597.714600
603.589722	655.906982
602.560425	677.645264
601.530884	631.380615
600.501221	704.102051
599.471375	716.109314
598.441284	701.414673
597.411011	645.473328
596.380615	638.075562
595.349976	579.740845
594.319153	582.058899
593.288147	613.473572
592.256897	625.481812
591.225525	649.605103
590.193970	647.061462
589.162170	719.631836
588.130188	695.273132
587.098022	658.812866
586.065674	564.246277
585.033142	561.720642
584.000427	551.933594
582.967468	580.875183
581.934387	634.004700
580.901062	590.337769
579.867554	672.473450
578.833862	619.141418
577.799988	645.625610
576.765930	681.770386
575.731628	650.220825
574.697205	664.600769
573.662537	676.559082
572.627747	688.512878
571.592712	671.477600
570.557434	613.394653
569.522034	644.669373
568.486450	613.167358
567.450623	629.948914
566.414673	658.789917
565.378479	634.540771
564.342102	607.888367
563.305542	697.012573
562.268799	694.471985
561.231812	706.397766
560.194702	679.751648
559.157349	715.775879
558.119812	792.749512
557.082092	744.419922
556.044189	672.021484
555.006042	739.327332
553.967773	710.296753
552.929260	637.944824
551.890625	652.267822
550.851746	693.056335
549.812683	666.461731
548.773376	690.393616
547.733948	723.936951
546.694275	711.779297
545.654419	738.093506
544.614441	668.247253
543.574158	675.333130
542.533752	689.625000
541.493164	658.265381
540.452332	694.172852
539.411316	751.680786
538.370178	703.519409
537.328735	693.786133
536.287170	708.058472
535.245422	765.520996
534.203430	702.996826
533.161255	698.068481
532.118896	697.938782
531.076355	719.390808
530.033630	702.474426
528.990723	707.138062
527.947571	697.420105
526.904236	723.648499
525.860718	728.305481
524.817017	749.727722
523.773132	744.798645
522.729004	804.520264
521.684692	761.279419
520.640198	780.285950
519.595520	796.892334
518.550659	803.921997
517.505615	741.575745
516.460327	782.097290
515.414856	719.778259
514.369202	719.644348
513.323364	767.318481
512.277283	834.094421
511.231079	807.654602
510.184631	764.501099
509.138000	661.648071
508.091187	709.288452
507.044159	699.605530
505.996948	763.932007
504.949554	754.242432
503.901947	785.125183
502.854126	713.400330
501.806152	703.725464
500.757965	787.071716
499.709564	734.463440
