#Wave		#Intensity
3200.600830	29.468966
3200.007080	12.629557
3199.413086	-12.627648
3198.819092	25.251478
3198.224854	0.000000
3197.630615	0.000000
3197.036377	16.826687
3196.442139	0.000000
3195.847656	33.643200
3195.252930	4.204764
3194.658447	16.816513
3194.063721	33.627941
3193.468750	0.000000
3192.873779	-4.202222
3192.278809	-4.201586
3191.683838	-8.401901
3191.088623	12.600946
3190.493164	12.599041
3189.897949	-4.199045
3189.302490	4.198410
3188.706787	8.395550
3188.111328	-8.394279
3187.515381	20.982525
3186.919678	16.783482
3186.323730	20.976177
3185.727783	29.362206
3185.131592	8.387932
3184.535400	12.579994
3183.939209	12.578091
3183.342773	8.384125
3182.746338	12.574285
3182.149902	4.190794
3181.553223	0.000000
3180.956543	16.758101
3180.359619	-16.755566
3179.762695	8.376514
3179.165771	-4.187623
3178.568604	4.186989
3177.971436	29.304487
3177.374268	4.185721
3176.776855	8.370175
3176.179443	12.553363
3175.581787	12.551461
3174.984131	8.366374
3174.386475	4.182554
3173.788574	-4.181920
3173.190674	-16.725147
3172.592773	0.000000
3171.994629	16.720081
3171.396484	12.538162
3170.798340	16.715017
3170.199951	12.534364
3169.601563	20.887442
3169.002930	8.353711
3168.404297	20.881113
3167.805664	20.877949
3167.206787	-4.174957
3166.607910	12.522974
3166.008789	20.868460
3165.409912	16.692238
3164.810547	20.862135
3164.211426	4.171795
3163.612061	12.513488
3163.012695	20.852652
3162.413086	0.000000
3161.813477	16.677065
3161.213623	4.168634
3160.614014	25.008013
3160.013916	20.836851
3159.414063	8.333477
3158.813965	8.332213
3158.213867	4.165475
3157.613525	20.824217
3157.013184	16.656847
3156.412598	37.472225
3155.812256	-16.651796
3155.211426	4.162318
3154.610840	4.161686
3154.010010	16.644220
3153.409180	12.481272
3152.808105	8.319586
3152.207031	-4.159162
3151.605957	16.634125
3151.004639	20.789501
3150.403320	16.629078
3149.801758	8.313277
3149.200195	16.624031
3148.598633	16.621510
3147.996826	-12.464240
3147.395020	8.308232
3146.793213	20.767429
3146.191162	12.458566
3145.589111	20.761126
3144.986816	0.000000
3144.384766	20.754824
3143.782227	-8.300669
3143.179932	12.449114
3142.577393	24.894447
3141.974609	4.148445
3141.371826	-8.295630
3140.769043	0.000000
3140.166260	20.732777
3139.563232	-8.291851
3138.960205	16.581184
3138.356934	20.723333
3137.753662	8.288074
3137.150391	20.717039
3136.546875	16.571114
3135.943359	8.284299
3135.339600	20.707600
3134.735840	8.281782
3134.132080	24.841572
3133.528076	28.977430
3132.924072	12.417012
3132.320068	12.415126
3131.715820	20.688732
3131.111572	8.274236
3130.507080	20.682446
3129.902588	0.000000
3129.298096	12.405696
3128.693604	33.076828
3128.088867	16.535900
3127.483887	0.000000
3126.878906	-4.132719
3126.273926	24.792542
3125.668945	16.525848
3125.063721	8.261668
3124.458252	16.520824
3123.853027	4.129578
3123.247559	-8.257900
3122.641846	4.128323
3122.036133	0.000000
3121.430420	49.524803
3120.824707	16.505758
3120.218750	4.125812
3119.612549	16.500738
3119.006592	28.871899
3118.400391	12.371789
3117.793945	16.493210
3117.187500	-4.122675
3116.581055	-4.122048
3115.974609	8.242842
3115.367920	8.241588
3114.760986	20.600836
3114.154297	24.717241
3113.547363	20.594566
3112.940186	4.118287
3112.333008	8.235320
3111.725830	4.117033
3111.118408	28.814846
3110.510986	-8.231561
3109.903564	-8.230308
3109.295898	20.572638
3108.688232	0.000000
3108.080566	41.132748
3107.472656	8.225297
3106.864746	20.560112
3106.256592	8.222793
3105.648438	20.553852
3105.040039	41.101448
3104.431885	12.328556
3103.823486	16.435572
3103.214844	4.108267
3102.606201	12.322925
3101.997559	16.428064
3101.388672	4.106390
3100.779785	20.528826
3100.170898	16.420559
3099.561768	12.313543
3098.952637	16.415556
3098.343262	8.206528
3097.733887	-8.205277
3097.124512	24.612083
3096.514893	12.304167
3095.905273	0.000000
3095.295410	28.700974
3094.685791	24.597086
3094.075684	-4.098889
3093.465820	4.098265
3092.855713	-4.097640
3092.245361	-4.097016
3091.635254	24.578346
3091.024658	12.287300
3090.414307	20.475712
3089.803711	20.472591
3089.193115	28.657257
3088.582275	0.000000
3087.971436	28.648520
3087.360596	28.644152
3086.749512	12.274193
3086.138428	12.272322
3085.527100	8.180300
3084.915771	49.074314
3084.304443	16.355610
3083.692871	20.441395
3083.081299	16.350622
3082.469482	24.522192
3081.857910	28.604860
3081.245850	4.085785
3080.634033	16.340647
3080.021973	12.253615
3079.409668	20.419577
3078.797607	32.666340
3078.185059	4.082669
3077.572754	12.246139
3076.960205	8.162847
3076.347656	24.484802
3075.734863	0.000000
3075.122070	28.556885
3074.509033	16.315729
3073.895996	20.391548
3073.282959	16.310749
3072.669922	12.231194
3072.056641	16.305769
3071.443115	4.075820
3070.829834	20.375990
3070.216064	0.000000
3069.602539	4.073954
3068.988770	12.219995
3068.375000	20.363546
3067.760986	24.432526
3067.146973	12.214396
3066.532715	16.283375
3065.918701	20.351110
3065.304199	20.348001
3064.689941	24.413872
3064.075439	20.341785
3063.460693	16.270943
3062.846191	4.067114
3062.231445	24.398958
3061.616455	24.395229
3061.001465	16.261002
3060.386475	-4.064629
3059.771240	28.448057
3059.156006	8.126774
3058.540771	20.313831
3057.925293	32.497162
3057.309814	12.184573
3056.694092	40.609035
3056.078369	16.241131
3055.462646	8.119325
3054.846680	4.059042
3054.230713	8.116842
3053.614502	4.057801
3052.998291	8.114361
3052.382080	16.226240
3051.765625	16.223759
3051.149170	16.221279
3050.532715	16.218798
3049.916016	28.378555
3049.299316	0.000000
3048.682373	8.105679
3048.065430	8.104439
3047.448486	28.361198
3046.831299	32.407841
3046.214111	20.251802
3045.596680	8.099482
3044.979248	12.147364
3044.361816	4.048502
3043.744141	20.239412
3043.126465	12.141788
3042.508545	-8.093287
3041.890869	8.092049
3041.272705	24.272432
3040.654785	32.358288
3040.036621	0.000000
3039.418213	8.087096
3038.799805	24.257576
3038.181396	20.211552
3037.562988	28.291842
3036.944336	12.123219
3036.325439	4.040454
3035.706543	12.119507
3035.087646	32.313740
3034.468750	32.308792
3033.849609	32.303844
3033.230469	4.037362
3032.611084	32.293949
3031.991699	12.108377
3031.372070	24.213045
3030.752441	8.069778
3030.132813	16.137085
3029.513184	40.336536
3028.893066	16.132143
3028.273193	16.129671
3027.653076	24.190800
3027.032959	24.187094
3026.412598	20.152824
3025.792480	12.089842
3025.171875	20.146648
3024.551270	36.258411
3023.930664	24.168570
3023.310059	28.192345
3022.689209	28.188023
3022.068115	24.157459
3021.447266	12.076879
3020.826172	36.225082
3020.204834	20.121962
3019.583496	4.023775
3018.962158	24.138950
3018.340576	36.202873
3017.718994	16.087700
3017.097412	40.213081
3016.475586	32.165535
3015.853760	40.200752
3015.231689	28.136211
3014.609619	28.131897
3013.987549	24.109356
3013.365234	0.000000
3012.742920	40.169937
3012.120361	16.065510
3011.497803	8.031523
3010.875244	24.090872
3010.252441	12.043589
3009.629639	24.083481
3009.006836	24.079786
3008.383789	32.101456
3007.760498	32.096531
3007.137451	0.000000
3006.514160	24.065010
3005.890625	36.091976
3005.267090	12.028812
3004.643555	56.125843
3004.019775	44.092110
3003.395996	48.093098
3002.772217	24.042858
3002.148193	24.039167
3001.524170	32.047302
3000.899902	28.037085
3000.275635	24.028097
2999.651367	24.024408
2999.026855	32.027626
2998.402344	32.022709
2997.777588	48.026688
2997.152832	24.009657
2996.528076	24.005970
2995.903076	12.001142
2995.278076	43.997425
2994.653076	19.995758
2994.027832	35.986835
2993.402344	15.991693
2992.777100	39.973091
2992.151367	11.990085
2991.525879	39.960808
2990.900146	35.959202
2990.274414	43.943382
2989.648438	15.976956
2989.022461	47.923504
2988.396240	23.958071
2987.770264	19.961990
2987.143799	39.917847
2986.517578	35.920540
2985.891113	19.952787
2985.264404	35.909496
2984.637695	47.871971
2984.010986	23.932306
2983.384033	31.904835
2982.757080	55.824879
2982.130127	23.921268
2981.502930	11.958796
2980.875732	35.870869
2980.248291	23.910236
2979.620850	27.890985
2978.993408	35.854324
2978.365723	35.848808
2977.738037	23.895531
2977.110107	27.873831
2976.482178	39.813633
2975.854248	35.826759
2975.226074	31.841110
2974.597900	27.856684
2973.969482	35.810226
2973.341309	35.804718
2972.712646	31.821518
2972.083984	23.862467
2971.455322	19.882330
2970.826660	31.806831
2970.197754	51.678146
2969.568604	67.568718
2968.939697	35.766167
2968.310547	31.787254
2967.681152	43.700748
2967.051758	59.582756
2966.422363	27.801006
2965.792725	31.767687
2965.163086	43.673843
2964.533203	47.636860
2963.903564	27.783890
2963.273438	51.590706
2962.643311	47.614857
2962.013184	59.509407
2961.383057	55.533558
2960.752686	35.694649
2960.122314	35.689148
2959.491699	27.753952
2958.861084	27.749678
2958.230225	19.818144
2957.599609	51.519238
2956.968506	43.586487
2956.337646	63.388760
2955.706299	19.805935
2955.075195	59.408649
2954.443848	63.359463
2953.812500	43.552917
2953.180908	51.463699
2952.549316	51.455769
2951.917725	71.235466
2951.285889	27.698412
2950.653809	63.300900
2950.021973	79.113930
2949.389893	55.371212
2948.757568	71.180580
2948.125244	86.985077
2947.492920	79.065155
2946.860352	51.384426
2946.227783	39.520386
2945.595215	94.834305
2944.962402	75.065582
2944.329590	86.904640
2943.696533	102.689644
2943.063477	98.724808
2942.430420	114.503120
2941.797119	118.433235
2941.163574	90.784805
2940.530273	90.770805
2939.896729	157.837906
2939.262939	126.250847
2938.629150	173.568130
2937.995361	165.653107
2937.361328	134.079453
2936.727295	153.773285
2936.093262	220.768585
2935.458984	169.492584
2934.824707	181.289658
2934.190186	189.142624
2933.555664	212.752609
2932.921143	212.719772
2932.286377	196.932358
2931.651367	185.087830
2931.016602	212.621277
2930.381592	220.462112
2929.746338	216.491852
2929.111084	212.522827
2928.475830	283.320007
2927.840332	263.604309
2927.204834	259.629822
2926.569336	235.990646
2925.933594	294.942749
2925.297607	271.305420
2924.661865	247.675400
2924.025879	294.806122
2923.389648	255.459167
2922.753418	275.067383
2922.117188	282.882751
2921.480713	322.122223
2920.844238	235.662781
2920.207764	267.043213
2919.571045	263.075470
2918.934082	263.034821
2918.297363	302.247009
2917.660156	262.953522
2917.023193	286.457336
2916.385986	290.336517
2915.748779	258.908752
2915.111328	247.101990
2914.473877	286.280273
2913.836182	305.841217
2913.198486	297.953064
2912.560791	262.628540
2911.922852	317.457062
2911.284912	278.221802
2910.646729	317.358887
2910.008545	313.392426
2909.370361	313.343964
2908.731934	360.289825
2908.093506	383.727631
2907.455078	297.538666
2906.816406	305.321411
2906.177490	399.204681
2905.538574	367.837616
2904.899658	352.130463
2904.260498	379.459686
2903.621338	398.957733
2902.982178	441.914215
2902.342773	398.834290
2901.703369	422.229797
2901.063721	445.618042
2900.424072	429.915771
2899.784424	453.295563
2899.144531	480.575226
2898.504639	507.846405
2897.864502	437.461517
2897.224365	472.541504
2896.583984	519.324707
2895.943848	456.778839
2895.303223	507.453491
2894.662842	562.015320
2894.021973	530.710022
2893.381348	479.906097
2892.740479	464.227509
2892.099609	499.259827
2891.458496	503.082367
2890.817383	506.903717
2890.176025	530.217163
2889.534668	491.154510
2888.893311	533.950378
2888.251709	549.455017
2887.610107	545.473694
2886.968262	576.554260
2886.326416	564.779846
2885.684570	623.108826
2885.042480	638.587585
2884.400391	646.275085
2883.758057	712.349487
2883.115723	673.318909
2882.473389	712.128723
2881.830811	813.179443
2881.188232	941.430237
2880.545410	1092.978882
2879.902588	1197.812622
2879.259766	1314.278809
2878.616699	1189.665649
2877.973633	1212.804443
2877.330322	1239.822510
2876.687012	1084.190796
2876.043457	920.836426
2875.399902	924.578430
2874.756348	846.751465
2874.112549	780.599304
2873.468750	683.403870
2872.824707	663.885986
2872.180664	659.901245
2871.536621	609.343689
2870.892334	585.965759
2870.248047	620.794556
2869.603760	570.266541
2868.958984	585.693115
2868.314453	558.455139
2867.669678	558.368469
2867.024902	581.543579
2866.379883	573.700623
2865.734863	538.729858
2865.089844	503.769867
2864.444580	588.931824
2863.799316	584.966492
2863.153809	565.508911
2862.508301	557.675659
2861.862549	565.333374
2861.216797	611.704163
2860.571045	541.932251
2859.925049	580.551514
2859.279053	607.549561
2858.632813	599.716980
2857.986572	622.835083
2857.340332	673.021606
2856.693848	676.784424
2856.047363	788.814758
2855.400635	730.700195
2854.753906	707.393494
2854.107178	772.987549
2853.460205	792.189209
2852.813232	784.338684
2852.166016	849.890137
2851.518799	896.108582
2850.871338	923.002930
2850.223877	984.640869
2849.576416	1034.677490
2848.928711	999.775513
2848.281006	1018.917847
2847.633301	1157.681274
2846.985352	1080.334595
2846.337158	1199.756592
2845.688965	1141.713013
2845.040771	1222.522827
2844.392578	1318.731323
2843.743896	1237.564209
2843.095459	1125.584351
2842.446777	1241.033569
2841.798096	1140.648560
2841.149170	1017.177002
2840.500244	1028.575928
2839.851074	993.750244
2839.202148	912.721680
2838.552734	843.269897
2837.903320	750.739990
2837.253906	731.376465
2836.604492	681.228943
2835.954834	615.704407
2835.304932	542.505066
2834.655029	453.940735
2834.005127	430.791962
2833.354980	423.033447
2832.704834	372.980530
2832.054688	342.166016
2831.404297	326.736908
2830.753906	253.662125
2830.103271	292.050323
2829.452637	265.109680
2828.801758	234.335861
2828.150879	222.776474
2827.500000	195.859161
2826.848877	191.988907
2826.197754	172.763123
2825.546387	126.673233
2824.895020	161.195374
2824.243408	149.658112
2823.591797	138.124451
2822.940186	138.102936
2822.288330	122.739052
2821.636475	122.719940
2820.984619	103.528824
2820.332520	126.515526
2819.680176	88.163757
2819.028076	76.652191
2818.375488	114.960381
2817.723145	99.616814
2817.070557	84.278015
2816.417725	91.925331
2815.764893	95.740639
2815.112061	114.870865
2814.458984	91.882378
2813.805908	95.695892
2813.152832	110.989937
2812.499512	107.146004
2811.845947	91.825119
2811.192383	68.858109
2810.538818	61.197666
2809.885010	103.254967
2809.231201	80.296898
2808.577393	84.107445
2807.923340	72.626930
2807.269287	57.328110
2806.614990	91.710670
2805.960693	45.848186
2805.306152	61.121384
2804.651611	84.028801
2803.997070	68.740112
2803.342285	68.729393
2802.687500	91.624901
2802.032471	64.890854
2801.377441	57.247704
2800.722412	61.054691
2800.067139	83.937111
2799.411621	83.924011
2798.756348	76.282654
2798.100586	72.457214
2797.445068	45.755314
2796.789307	49.560524
2796.133301	83.858566
2795.477539	53.356216
2794.821289	38.105637
2794.165283	57.149532
2793.509033	68.568733
2792.852539	64.749252
2792.196045	60.930962
2791.539551	64.729042
2790.882813	68.525932
2790.226074	79.934441
2789.569092	41.863888
2788.912109	45.662563
2788.255127	57.069294
2787.597900	45.648308
2786.940430	53.248043
2786.283203	60.845402
2785.625488	49.429169
2784.968018	76.032997
2784.310303	64.617958
2783.652588	41.805088
2782.994629	64.597771
2782.336426	37.992752
2781.678467	49.382866
2781.020264	64.567505
2780.361816	56.962425
2779.703369	56.953526
2779.044922	56.944626
2778.386230	49.344299
2777.727539	56.926834
2777.068604	53.123409
2776.409668	83.466599
2775.750732	34.140087
2775.091553	53.098503
2774.432373	45.505890
2773.772949	49.290340
2773.113525	26.536804
2772.453857	49.274933
2771.794189	64.426376
2771.134521	34.102749
2770.474609	37.886021
2769.814697	45.456116
2769.154541	60.598675
2768.494385	53.015549
2767.833984	34.076096
2767.173584	71.927170
2766.513184	49.205631
2765.852539	52.982391
2765.191895	52.974102
2764.531006	37.832726
2763.870117	34.044128
2763.209229	56.731335
2762.548096	68.066948
2761.886719	56.713585
2761.225586	60.485023
2760.563965	56.695839
2759.902588	56.686966
2759.240967	56.678097
2758.579102	56.669224
2757.917236	64.215073
2757.255371	67.981789
2756.593262	67.971146
2755.931152	71.736092
2755.269043	45.299911
2754.606689	60.390427
2753.944092	52.833351
2753.281494	75.464394
2752.618896	49.044178
2751.956055	49.036499
2751.293213	45.257370
2750.630371	56.562855
2749.967285	41.472931
2749.303955	79.163193
2748.640625	60.305370
2747.977295	71.601410
2747.313721	33.911144
2746.650146	56.509720
2745.986572	48.967419
2745.322754	75.322685
2744.658691	67.779800
2743.994873	67.769180
2743.330566	52.701103
2742.666504	56.456619
2742.002197	56.447773
2741.337646	75.251900
2740.673096	67.716095
2740.008545	90.273979
2739.343750	52.651566
2738.678955	60.163788
2738.013916	82.712242
2737.348877	48.867752
2736.683594	86.444778
2736.018311	52.610310
2735.353027	75.145805
2734.687500	101.430923
2734.021973	56.341679
2733.356201	82.621506
2732.690430	75.098679
2732.024658	90.104279
2731.358643	82.582634
2730.692383	82.569687
2730.026367	116.329941
2729.359863	97.551743
2728.693604	112.542046
2728.027100	146.281708
2727.360352	135.008087
2726.693604	157.484711
2726.026855	142.463821
2725.359863	116.202248
2724.692871	149.914856
2724.025635	157.385895
2723.358398	131.134323
2722.691162	161.082596
2722.023682	146.075241
2721.355957	131.072586
2720.688477	138.540695
2720.020508	164.725250
2719.352783	149.726715
2718.684814	175.901260
2718.016602	153.421692
2717.348389	153.397598
2716.680176	175.818420
2716.011719	142.128738
2715.343262	186.982132
2714.674561	138.345047
2714.005859	149.538727
2713.337158	138.301590
2712.668213	156.966339
2711.999023	164.415100
2711.329834	141.972549
2710.660645	127.008118
2709.991455	145.662888
2709.321777	104.562057
2708.652344	126.948265
2707.982666	149.327438
2707.312988	141.838760
2706.643066	104.496353
2705.972900	100.748505
2705.302979	123.117706
2704.632813	152.940384
2703.962402	111.890007
2703.291992	96.956100
2702.621582	111.854836
2701.950928	104.381432
2701.280273	115.546989
2700.609375	85.714935
2699.938477	89.427605
2699.267334	85.687981
2698.596191	89.399483
2697.925049	85.661034
2697.253662	93.095177
2696.582031	89.357315
2695.910645	111.679077
2695.239014	111.661507
2694.567139	74.429298
2693.895264	78.138466
2693.223145	89.287056
2692.551270	89.273010
2691.878906	92.978088
2691.206543	78.089302
2690.534180	81.794968
2689.861816	81.782097
2689.189209	96.636360
2688.516357	70.607765
2687.843506	66.881042
2687.170654	66.870514
2686.497559	104.004425
2685.824463	51.994030
2685.151123	96.545135
2684.477783	77.966492
2683.804199	89.090530
2683.130615	115.057152
2682.457031	66.796860
2681.783203	59.365639
2681.109375	59.356289
2680.435303	51.928574
2679.761230	70.463394
2679.086914	77.868332
2678.412598	66.733772
2677.738281	74.136955
2677.063721	77.831543
2676.389160	70.407921
2675.714355	66.691734
2675.039551	92.612816
2674.364502	59.262863
2673.689453	62.956871
2673.014404	48.135902
2672.339111	77.745743
2671.663574	62.927113
2670.988037	85.123268
2670.312500	59.206852
2669.636719	55.497677
2668.960938	62.887451
2668.285156	81.370934
2667.609131	77.660011
2666.932861	73.950256
2666.256592	44.363159
2665.580322	51.748859
2664.903809	73.915283
2664.227295	51.732540
2663.550781	88.670372
2662.874023	73.880325
2662.197021	84.948975
2661.520020	51.699917
2660.843018	73.845375
2660.165771	81.217094
2659.488525	70.130974
2658.811035	73.810432
2658.133545	47.969212
2657.455811	70.097786
2656.778076	92.219383
2656.100342	70.075668
2655.422363	70.064613
2654.744385	81.114647
2654.066162	70.042503
2653.387939	55.287987
2652.709473	73.705681
2652.031006	70.009346
2651.352539	66.314178
2650.673828	92.088486
2649.994873	51.561409
2649.316162	66.282776
2648.636963	73.635902
2647.958008	73.624275
2647.278809	58.890121
2646.599365	66.240929
2645.919922	62.550995
2645.240479	66.220009
2644.560791	62.531242
2643.880859	73.554550
2643.201172	66.188637
2642.520996	77.207878
2641.841064	51.463787
2641.160889	58.806469
2640.480469	62.472000
2639.800049	58.787888
2639.119629	80.820580
2638.438965	69.788559
2637.758301	77.122536
2637.077393	62.422665
2636.396484	58.741459
2635.715332	69.744461
2635.034180	80.743980
2634.353027	73.392014
2633.671631	69.711395
2632.989990	62.363491
2632.308350	62.353634
2631.626709	69.678337
2630.944824	47.667114
2630.262939	73.322426
2629.581055	76.976379
2628.898926	65.969322
2628.216553	73.287651
2627.534180	80.603668
2626.851807	58.611580
2626.169189	73.252892
2625.486572	58.593040
2624.803711	62.245258
2624.120850	54.913601
2623.437988	84.187531
2622.754883	58.555977
2622.071533	80.501732
2621.388184	69.513222
2620.704834	58.528187
2620.021240	47.546627
2619.337646	54.852814
2618.653809	54.844131
2617.969971	65.802544
2617.286133	69.447243
2616.602051	40.199936
2615.917725	54.809418
2615.233398	65.760895
2614.549072	65.750481
2613.864502	47.478939
2613.179932	80.336258
2612.495117	51.114979
2611.810303	58.407867
2611.125488	51.098793
2610.440430	65.688042
2609.755127	58.380127
2609.069824	62.019058
2608.384521	91.190056
2607.698975	54.705368
2607.013428	76.575378
2606.327637	87.500862
2605.641846	83.841705
2604.956055	40.091854
2604.270020	83.815140
2603.583740	58.296947
2602.897461	61.930695
2602.211182	58.278477
2601.524658	76.478378
2600.838135	61.901257
2600.151367	54.610100
2599.464600	65.521736
2598.777832	76.429909
2598.090820	54.584137
2597.403564	98.235870
2596.716309	54.566833
2596.029053	76.381454
2595.341553	90.915886
2594.654053	72.721176
2593.966309	65.438683
2593.278564	47.253777
2592.590820	87.223907
2591.902832	83.576317
2591.214600	43.598122
2590.526367	76.284615
2589.838135	94.432632
2589.149658	76.260414
2588.461182	50.832211
2587.772461	79.866516
2587.083740	65.334961
2586.394775	79.841179
2585.705811	65.314232
2585.016846	43.535912
2584.327637	72.548340
2583.638184	65.283142
2582.948975	43.515190
2582.259277	47.133976
2581.569824	79.752525
2580.879883	47.119015
2580.190186	61.607391
2579.500244	61.597610
2578.810059	57.965019
2578.119873	47.089100
2577.429688	72.433266
2576.739258	61.558502
2576.048584	54.307701
2575.358154	57.919014
2574.667236	65.148544
2573.976563	72.375778
2573.285645	57.891426
2572.594482	57.882229
2571.903320	50.638905
2571.212158	68.713310
2570.520752	50.622818
2569.829102	57.845459
2569.137451	83.139633
2568.445801	61.441273
2567.753906	72.272362
2567.062012	65.034790
2566.370117	57.799519
2565.677979	50.566540
2564.985596	65.003792
2564.293213	50.550468
2563.600830	46.932262
2562.908203	39.705601
2562.215332	57.744419
2561.522705	50.518337
2560.829590	43.294548
2560.136719	46.894970
2559.443604	61.314438
2558.750244	54.092373
2558.056885	50.478188
2557.363525	61.285194
2556.669922	57.671009
2555.976074	43.246380
2555.282227	28.826334
2554.588379	39.629902
2553.894287	57.634327
2553.200195	54.023586
2552.505859	68.418991
2551.811523	43.205120
2551.117188	46.798100
2550.422607	53.989216
2549.727783	39.585793
2549.032959	57.570171
2548.338135	57.561008
2547.643066	35.969906
2546.947998	35.964180
2546.252686	64.725220
2545.557373	46.738552
2544.861816	53.920513
2544.166260	50.317802
2543.470703	71.871132
2542.774902	64.673721
2542.078857	68.255836
2541.382813	53.877605
2540.686768	39.503952
2539.990479	43.088360
2539.294189	35.901245
2538.597656	53.843292
2537.901123	57.423698
2537.204346	53.826145
2536.507568	43.054054
2535.810791	43.047199
2535.113770	53.800426
2534.416504	50.205730
2533.719238	46.612179
2533.021973	50.189732
2532.324463	82.441422
2531.626953	53.757580
2530.929199	78.831886
2530.231445	42.992355
2529.533447	75.224632
2528.835449	46.560207
2528.137451	39.390820
2527.439209	39.384541
2526.740723	46.537945
2526.042236	64.426888
2525.343750	35.787006
2524.645020	53.671951
2523.946289	67.973633
2523.247314	39.346882
2522.548340	53.646282
2521.849121	25.030939
2521.149902	57.204449
2520.450684	71.494156
2519.751221	46.463791
2519.051514	42.882813
2518.351807	67.886955
2517.652100	39.296703
2516.952148	42.862293
2516.252197	53.569317
2515.552002	53.560772
2514.851807	53.552223
2514.151367	64.252411
2513.450928	46.397118
2512.750244	57.095032
2512.049561	60.653790
2511.348877	28.538403
2510.647949	42.800774
2509.946777	67.757072
2509.245605	46.352703
2508.544434	35.650230
2507.843018	64.160172
2507.141602	67.713814
2506.439941	53.449738
2505.738281	57.003952
2505.036377	42.746136
2504.334473	89.040230
2503.632568	32.049362
2502.930420	64.088486
2502.228027	64.078255
2501.525635	74.746017
2500.823242	39.146423
2500.120605	60.489353
2499.417969	49.806805
2498.715088	81.812393
2498.012207	49.790890
2497.309082	78.230324
2496.605957	31.998201
2495.902588	49.767025
2495.199219	31.987974
2494.495605	56.858421
2493.791992	63.955502
2493.088379	53.287731
2492.384521	60.383110
2491.680664	56.822079
2490.976563	53.262180
2490.272461	67.454643
2489.568115	56.794830
2488.863770	56.785748
2488.159180	46.131042
2487.454590	63.863537
2486.749756	74.495544
2486.044922	70.936790
2485.339844	53.194084
2484.634766	28.365641
2483.929688	70.902756
2483.224365	60.257706
2482.519043	56.704060
2481.813477	42.521244
2481.107666	70.857399
2480.402100	35.423031
2479.696045	85.001671
2478.990234	49.576374
2478.284180	53.109043
2477.577881	35.400364
2476.871582	46.013107
2476.165039	56.622452
2475.458496	53.075050
2474.751953	63.679867
2474.045166	53.058060
2473.338379	42.439655
2472.631348	67.185364
2471.924072	45.961571
2471.217041	56.559029
2470.509521	28.274986
2469.802246	67.142342
2469.094482	67.131592
2468.386963	52.990135
2467.679199	77.706413
2466.971191	67.099335
2466.263184	56.495655
2465.554932	67.077843
2464.846680	60.007404
2464.138428	42.351383
2463.429932	45.873314
2462.721436	56.450417
2462.012695	56.441372
2461.303955	49.378284
2460.594971	42.317463
2459.885986	59.940132
2459.176758	49.354549
2458.467529	66.970436
2457.758057	56.387119
2457.048584	63.425339
2456.338867	66.938240
2455.629150	45.792503
2454.919434	45.785164
2454.209473	63.384678
2453.499512	45.770481
2452.789307	49.283386
2452.078857	49.275482
2451.368408	52.786694
2450.657959	70.370972
2449.947266	56.287746
2449.236572	24.621939
2448.525879	77.370827
2447.814697	66.809540
2447.103760	73.830276
2446.392578	45.697124
2445.681152	101.923386
2444.969727	35.140354
2444.258301	59.729019
2443.546631	77.283974
2442.834717	59.709850
2442.122803	84.282730
2441.410889	73.735558
2440.698730	35.106533
2439.986572	73.711884
2439.274170	52.642895
2438.561768	49.125481
2437.849121	56.134396
2437.136475	52.617546
2436.423584	45.594551
2435.710693	80.654327
2434.997803	56.098351
2434.284424	84.134010
2433.571289	49.070293
2432.857910	52.566872
2432.144287	56.062321
2431.430908	52.549984
2430.717041	73.558159
2430.003174	56.035313
2429.289307	66.531242
2428.575195	77.023796
2427.861084	77.011421
2427.146729	48.999393
2426.432373	73.487282
2425.717773	73.475471
2425.003174	83.958473
2424.288330	69.954155
2423.573486	38.468601
2422.858643	69.931664
2422.143555	73.416451
2421.428223	73.404648
2420.712891	69.897949
2419.997559	76.875381
2419.281982	62.887928
2418.566162	52.398178
2417.850586	83.823608
2417.134521	59.365509
2416.418457	52.372906
2415.702393	55.855450
2414.986084	66.317680
2414.269775	62.817169
2413.553223	69.785629
2412.836670	62.796963
2412.120117	73.251335
2411.403076	80.214745
2410.686279	83.688881
2409.969238	69.729515
2409.251953	69.718292
2408.534668	69.707077
2407.817383	59.241478
2407.099854	94.074265
2406.382080	87.091782
2405.664307	73.145325
2404.946533	66.168449
2404.228516	69.639786
2403.510498	62.665718
2402.792236	66.136497
2402.073975	66.125854
2401.355469	59.155708
2400.636963	66.104561
2399.918213	59.136662
2399.199463	66.083275
2398.480469	62.595123
2397.761475	62.585041
2397.042480	73.004120
2396.323242	52.137402
2395.603760	55.604271
2394.884277	62.544727
2394.164795	69.482948
2393.445068	17.367939
2392.725098	65.987534
2392.005127	65.976898
2391.285156	59.022449
2390.564941	69.426987
2389.844727	83.298958
2389.124268	48.583229
2388.403809	65.923752
2387.683105	55.505795
2386.962402	52.028294
2386.241455	72.827873
2385.520508	76.283562
2384.799316	38.135632
2384.078125	51.994751
2383.356689	62.383640
2382.635254	62.373585
2381.913818	79.686729
2381.192139	55.425304
2380.470215	45.025799
2379.748291	62.333359
2379.026367	86.560143
2378.304199	58.851402
2377.581787	48.458046
2376.859375	31.146574
2376.136963	89.964478
2375.414307	55.353825
2374.691650	89.935448
2373.968750	79.545448
2373.245850	55.327034
2372.522705	69.147629
2371.799316	62.222824
2371.076172	65.669044
2370.352783	89.848404
2369.629150	58.737549
2368.905518	65.637253
2368.181641	75.988762
2367.457764	62.162586
2366.733643	55.246712
2366.009521	93.213776
2365.285400	58.680676
2364.561035	65.573692
2363.836426	72.464485
2363.111816	62.102386
2362.387207	62.092358
2361.662354	55.184292
2360.937256	68.969223
2360.212158	65.510178
2359.487061	86.183678
2358.761719	79.276176
2358.036377	79.263367
2357.310791	44.793797
2356.584961	89.573112
2355.859375	58.557571
2355.133301	61.992119
2354.407471	65.425552
2353.681152	82.629440
2352.955078	58.519730
2352.228516	65.393829
2351.502197	68.824486
2350.775635	75.694695
2350.048828	72.242348
2349.322021	68.791115
2348.594971	51.584991
2347.867920	82.522644
2347.140869	75.633522
2346.413330	48.122643
2345.686035	61.861961
2344.958496	54.979519
2344.230713	61.841953
2343.502930	68.702164
2342.775146	51.518291
2342.047119	72.113937
2341.319092	72.102272
2340.590820	51.493294
2339.862305	68.646614
2339.133789	48.044857
2338.405273	68.624405
2337.676514	48.029308
2336.947754	30.870987
2336.218750	41.154655
2335.489746	89.153984
2334.760498	61.712002
2334.031250	75.413567
2333.301758	54.837353
2332.572266	82.242714
2331.842529	68.524498
2331.112793	61.662067
2330.382813	61.652081
2329.652832	75.340340
2328.922607	58.208111
2328.192383	82.162849
2327.462158	65.035057
2326.731689	61.602177
2326.000977	65.013992
2325.270264	47.897285
2324.539307	68.413612
2323.808350	85.503159
2323.077393	61.552299
2322.346191	64.961349
2321.614746	68.369286
2320.883301	82.029846
2320.151855	51.260345
2319.420166	47.835239
2318.688232	54.659985
2317.956299	58.066818
2317.224365	78.548256
2316.492188	61.462585
2315.760010	75.108765
2315.027588	75.096588
2314.295166	58.019772
2313.562500	88.721733
2312.829590	64.824600
2312.096924	71.636627
2311.363770	88.678581
2310.630615	54.562588
2309.897461	81.830605
2309.164063	81.817337
2308.430664	64.761551
2307.697021	81.790794
2306.963379	61.333145
2306.229492	98.798485
2305.495605	47.688084
2304.761719	68.114777
2304.027344	71.508911
2303.293213	61.283409
2302.558838	78.293869
2301.824219	74.877640
2301.089600	88.477394
2300.354736	85.060608
2299.619873	54.429955
2298.885010	68.026398
2298.149658	61.213818
2297.414551	74.804749
2296.679199	78.192261
2295.943604	54.385788
2295.208008	74.768318
2294.472412	88.348206
2293.736572	61.154213
2293.000488	64.541183
2292.264404	61.134350
2291.528320	71.311829
2290.791992	67.904991
2290.055420	81.472755
2289.318848	81.459518
2288.582275	54.297527
2287.845459	44.109573
2287.108398	88.204811
2286.371582	78.014656
2285.634277	57.653637
2284.896973	88.161819
2284.159668	81.366920
2283.422119	61.015270
2282.684570	57.616169
2281.946777	64.384079
2281.208740	50.821270
2280.470703	64.363144
2279.732666	60.965698
2278.994385	91.433685
2278.256104	74.489410
2277.517578	71.091965
2276.779053	94.773872
2276.040283	67.684616
2275.301514	94.743050
2274.562500	77.811996
2273.823486	57.503857
2273.084229	84.550743
2272.344971	81.155510
2271.605469	74.380447
2270.865967	74.368347
2270.126221	60.836933
2269.386475	81.102715
2268.646484	70.953331
2267.906494	91.210861
2267.166260	74.307869
2266.426025	74.295776
2265.685547	81.036751
2264.945068	74.271599
2264.204346	87.761238
2263.463623	64.122772
2262.722656	87.732666
2261.981689	67.475677
2261.240723	74.211166
2260.499268	70.826393
2259.758057	97.791954
2259.016602	84.289680
2258.274902	97.760109
2257.533203	70.780273
2256.791260	70.768745
2256.049316	67.387833
2255.307129	84.221069
2254.564941	90.943939
2253.822754	84.193634
2253.080322	84.179916
2252.337646	87.532852
2251.594971	70.688095
2250.852051	80.773232
2250.109131	84.125069
2249.366211	74.017998
2248.623047	80.733749
2247.879639	77.357231
2247.136230	94.158676
2246.392578	87.418800
2245.648926	84.042839
2244.905273	97.473801
2244.161377	87.376060
2243.417236	94.081955
2242.673096	94.066612
2241.928955	97.410255
2241.184570	104.111221
2240.439941	73.873337
2239.695313	83.933281
2238.950439	73.849243
2238.205566	87.262138
2237.460693	73.825150
2236.715576	80.523392
2235.970215	63.737289
2235.224854	90.559265
2234.479492	87.190994
2233.733887	80.470863
2232.988037	80.457733
2232.242188	80.444603
2231.496338	77.080162
2230.750244	87.119881
2230.003906	73.704788
2229.257568	77.042427
2228.511230	63.633358
2227.764648	93.760170
2227.017822	66.960617
2226.270996	90.382072
2225.523926	76.979568
2224.776855	87.006172
2224.029785	107.067039
2223.282471	117.085449
2222.534912	90.308311
2221.787354	76.916740
2221.039795	90.278816
2220.291992	96.950294
2219.543945	76.879059
2218.795898	76.866501
2218.047852	70.170990
2217.299561	90.205109
2216.551025	63.467297
2215.802490	66.796768
2215.053955	90.160896
2214.305176	96.823662
2213.556152	90.131432
2212.807129	83.441391
2212.058105	80.090645
2211.308838	73.404427
2210.559326	100.080582
2209.809814	90.057800
2209.060303	96.712936
2208.310547	70.022057
2207.560547	76.678284
2206.810547	89.998924
2206.060303	76.653214
2205.310059	79.972878
2204.559814	83.291458
2203.809326	59.960045
2203.058594	103.247635
2202.307861	66.600479
2201.557129	123.190735
2200.806152	73.236565
2200.054932	89.866531
2199.303711	96.507523
2198.552246	56.564117
2197.800781	86.495674
2197.049316	93.133949
2196.297607	86.467369
2195.545654	103.078842
2194.793701	86.439072
2194.041504	122.989311
2193.289307	93.057762
2192.537109	83.073685
2191.784668	83.060089
2191.031982	83.046486
2190.279297	79.711578
2189.526367	92.981613
2188.773438	106.247299
2188.020508	92.951164
2187.267090	109.531654
2186.513916	102.876518
2185.760498	106.177727
2185.006836	112.795357
2184.253174	112.776878
2183.499268	106.125557
2182.745361	126.003456
2181.991211	106.090790
2181.237061	106.073410
2180.482666	102.741776
2179.728271	99.411240
2178.973877	132.526596
2178.218994	102.691284
2177.464355	105.986534
2176.709229	89.411476
2175.954346	105.951790
2175.198975	105.934425
2174.443848	99.297241
2173.688232	102.590332
2172.932861	112.499985
2172.177002	112.481537
2171.421387	95.924408
2170.665283	92.601479
2169.909424	95.892952
2169.153076	92.571114
2168.396729	85.944794
2167.640381	72.710587
2166.883789	128.874908
2166.127197	85.902512
2165.370361	79.281616
2164.613525	99.085762
2163.856445	75.953293
2163.099365	89.147926
2162.342041	85.832069
2161.584473	99.020752
2160.826904	82.503754
2160.069336	75.890999
2159.311523	95.672943
2158.553711	95.657242
2157.795654	69.257668
2157.037354	75.841187
2156.279053	102.203949
2155.520752	95.594444
2154.762207	88.987114
2154.003662	88.972504
2153.244873	62.599998
2152.485840	79.060699
2151.726807	88.928680
2150.967773	92.207191
2150.208252	69.144035
2149.448975	95.468941
2148.689453	102.036240
2147.929688	69.109970
2147.169922	98.712311
2146.410156	95.406227
2145.650146	88.811890
2144.889893	92.086090
2144.129639	105.223953
2143.369141	95.343536
2142.608643	98.615036
2141.847900	105.172081
2141.087158	78.866096
2140.326416	91.995323
2139.565186	101.835228
2138.804199	98.534019
2138.042725	85.382111
2137.281494	88.651459
2136.519775	72.222649
2135.758301	68.928467
2134.996338	85.325974
2134.234619	88.593170
2133.472412	88.578598
2132.710449	75.443436
2131.947998	88.549469
2131.185547	104.930252
2130.423096	78.684746
2129.660400	98.339752
2128.897705	78.658859
2128.134766	88.476654
2127.371826	104.843971
2126.608643	72.068367
2125.845215	98.258881
2125.081787	88.418434
2124.318359	78.581230
2123.554688	78.568298
2122.790771	108.013634
2122.026855	85.087639
2121.262939	101.433952
2120.498779	88.331154
2119.734375	121.026466
2118.969971	94.842964
2118.205322	91.557442
2117.440674	85.003624
2116.676025	111.140282
2115.911133	120.926865
2115.145996	78.426125
2114.380859	114.352600
2113.615479	117.600441
2112.850098	97.984222
2112.084473	84.905670
2111.318848	117.542336
2110.552979	88.142227
2109.787109	101.183662
2109.020996	88.113182
2108.254883	97.887405
2107.488525	94.608902
2106.722168	81.545959
2105.955566	78.271217
2105.188965	84.779839
2104.422119	88.026093
2103.655029	97.790649
2102.887939	94.515373
2102.120850	84.723953
2101.353516	110.774597
2100.585938	84.696022
2099.818359	113.995071
2099.050781	94.437485
2098.282959	84.654129
2097.514893	133.471024
2096.746826	107.410187
2095.978760	61.832027
2095.210449	78.090729
2094.441895	91.090820
2093.673340	110.592041
2092.904541	97.565109
2092.135742	91.045746
2091.366699	100.784019
2090.597656	107.268509
2089.828369	84.500633
2089.059082	100.734131
2088.289551	94.219604
2087.520020	87.707222
2086.750244	87.692741
2085.980469	94.172958
2085.210449	90.910606
2084.440186	97.388138
2083.670166	84.389114
2082.899658	100.601181
2082.129150	84.361252
2081.358643	90.835579
2080.587891	81.089798
2079.816895	100.534744
2079.045898	110.245705
2078.274902	110.227493
2077.503662	116.692192
2076.732178	100.468338
2075.960693	84.249847
2075.188965	90.715622
2074.417236	87.461319
2073.645264	110.118286
2072.873291	90.670662
2072.101074	84.180275
2071.328857	100.352196
2070.556396	93.862350
2069.783936	106.791222
2069.011230	77.653511
2068.238525	106.755928
2067.465576	77.627838
2066.692627	100.252716
2065.919434	106.702988
2065.145996	80.822227
2064.372559	90.505928
2063.599121	106.650063
2062.825439	106.632431
2062.051514	113.076302
2061.277588	93.676292
2060.503662	109.809212
2059.729248	100.103607
2058.955078	113.001503
2058.180664	96.842407
2057.406006	122.646759
2056.631348	112.945427
2055.856445	106.473785
2055.081543	119.359940
2054.306396	109.663963
2053.531250	116.095566
2052.755859	116.076355
2051.980225	96.714279
2051.204590	99.921547
2050.428955	106.350494
2049.653076	93.444054
2048.877197	122.423660
2048.101074	109.518829
2047.324707	112.721306
2046.548340	103.042412
2045.771851	109.464432
2044.995239	112.665314
2044.218506	112.646660
2043.441528	102.974174
2042.664551	112.609344
2041.887329	109.373817
2041.110107	109.355698
2040.332642	125.416641
2039.555176	99.673630
2038.777466	99.657120
2037.999634	93.212181
2037.221802	102.837776
2036.443726	109.247032
2035.665527	118.866776
2034.887207	96.362488
2034.108765	112.404274
2033.330200	122.018700
2032.551514	128.419449
2031.772705	134.818054
2030.993774	112.329758
2030.214600	109.102249
2029.435425	118.709229
2028.656128	99.442589
2027.876587	131.499039
2027.097046	134.683990
2026.317261	128.249191
2025.537476	118.610832
2024.757446	92.949829
2023.977295	112.162216
2023.197021	108.939507
2022.416626	92.903580
2021.636230	92.888168
2020.855591	105.682785
2020.074707	112.069206
2019.293823	118.453506
2018.512817	108.831100
2017.731689	131.215729
2016.950439	140.793503
2016.168945	105.577606
2015.387451	86.367340
2014.605713	108.740814
2013.823975	111.920494
2013.041992	140.676682
2012.260010	89.506668
2011.477783	111.864754
2010.695435	105.454971
2009.912964	150.168503
2009.130371	95.836319
2008.347656	102.208427
2007.564819	127.739319
2006.781860	124.525146
2005.998779	114.927193
2005.215576	89.372971
2004.432129	108.506287
2003.648682	111.679092
2002.864990	118.041138
2002.081299	127.590843
2001.297363	114.812675
2000.513428	105.227463
1999.729248	108.398155
1998.944946	89.254234
1998.160522	114.736366
1997.375977	108.344116
1996.591309	140.186722
1995.806519	111.493629
1995.021606	130.585114
1994.236572	114.641029
1993.451416	108.254082
1992.666016	111.419495
1991.880615	120.949623
1991.094971	92.288307
1990.309326	146.363998
1989.523438	95.438911
1988.737549	111.326874
1987.951416	108.128113
1987.165161	146.266647
1986.378784	130.346405
1985.592285	108.074158
1984.805664	117.590546
1984.018921	127.103760
1983.232056	120.728477
1982.444946	152.473755
1981.657837	95.280235
1980.870605	101.615334
1980.083130	114.298225
1979.295654	123.802467
1978.507935	120.607964
1977.720093	117.414520
1976.932129	98.357948
1976.144165	139.581589
1975.355957	107.840538
1974.567627	123.678848
1973.779053	136.341141
1972.990479	107.786674
1972.201782	120.447395
1971.412964	133.103897
1970.623901	133.081726
1969.834839	139.395721
1969.045532	123.534714
1968.256226	120.347107
1967.466675	110.827553
1966.677002	110.809082
1965.887207	120.286957
1965.097290	142.421341
1964.307251	110.753700
1963.517090	158.193207
1962.726807	107.553444
1961.936401	132.837997
1961.145874	142.302704
1960.355103	135.955460
1959.564331	145.416489
1958.773315	113.785233
1957.982178	101.125565
1957.191040	132.705170
1956.399658	104.250961
1955.608154	151.612473
1954.816528	120.006523
1954.024780	138.931747
1953.232910	161.007660
1952.440918	145.198380
1951.648682	132.550308
1950.856445	148.305359
1950.063965	148.280624
1949.271484	129.329605
1948.478760	116.692604
1947.685913	148.206406
1946.893066	119.806458
1946.099976	148.156952
1945.306763	144.980469
1944.513428	151.258713
1943.719971	126.027893
1942.926270	126.006851
1942.132568	163.781555
1941.338745	138.561264
1940.544678	129.092346
1939.750610	141.663055
1938.956299	169.967285
1938.161865	119.586632
1937.367310	122.713158
1936.572632	128.984589
1935.777832	150.981125
1934.982910	163.535568
1934.187866	150.930695
1933.392700	154.049347
1932.597290	138.306915
1931.801880	144.569427
1931.006226	131.976120
1930.210571	122.528778
1929.414673	153.920685
1928.618652	153.894958
1927.822510	135.028107
1927.026245	147.564194
1926.229858	156.956955
1925.433350	138.099030
1924.636719	131.799759
1923.839844	156.878250
1923.042969	112.933456
1922.245850	150.552765
1921.448730	112.895691
1920.651367	156.773346
1919.853882	147.342300
1919.056274	175.527420
1918.258545	137.891342
1917.460693	188.002197
1916.662720	159.775131
1915.864624	156.616089
1915.066284	162.853470
1914.267944	159.694962
1913.469360	172.191238
1912.670776	175.292648
1911.871948	150.225693
1911.072998	122.037956
1910.273926	140.789459
1909.474731	147.022156
1908.675415	156.380371
1907.875977	137.591690
1907.076294	125.062416
1906.276611	131.293549
1905.476807	162.526703
1904.676758	131.249588
1903.876587	137.476547
1903.076294	162.445084
1902.275879	131.183670
1901.475342	153.021973
1900.674683	168.608215
1899.873901	146.727020
1899.072998	137.338455
1898.271851	149.798676
1897.470703	137.292450
1896.669312	177.826324
1895.867920	152.842636
1895.066284	162.173172
1894.264526	155.909607
1893.462646	174.589493
1892.660645	146.505920
1891.858521	149.597992
1891.056152	162.037323
1890.253784	162.010162
1889.451172	149.522766
1888.648560	180.643051
1887.845703	146.358627
1887.042725	158.788055
1886.239624	149.422516
1885.436401	136.947678
1884.633057	174.267807
1883.829590	174.238586
1883.025879	161.765839
1882.222168	186.621582
1881.418213	155.491898
1880.614258	161.684448
1879.810059	152.330948
1879.005737	164.738480
1878.201294	174.034088
1877.396729	152.254272
1876.592041	152.228729
1875.787231	161.521744
1874.982178	167.705978
1874.177124	155.257248
1873.371826	170.754303
1872.566406	152.101028
1871.760986	152.075500
1870.955322	176.874451
1870.149536	142.716827
1869.343506	133.386810
1868.537476	136.465912
1867.731323	164.351776
1866.924927	161.223724
1866.118530	189.096069
1865.311890	151.871338
1864.505127	170.439194
1863.698242	173.508942
1862.891235	185.871201
1862.084106	195.131973
1861.276855	176.518326
1860.469482	167.199783
1859.661865	182.650558
1858.854126	182.619858
1858.046387	154.736588
1857.238403	145.427948
1856.430298	173.246735
1855.622070	145.379074
1854.813721	179.373795
1854.005249	166.975128
1853.196533	173.130280
1852.387817	176.192261
1851.578857	148.347488
1850.769775	157.592697
1849.960693	173.013870
1849.151367	194.607864
1848.341919	179.132675
1847.532227	163.662674
1846.722534	197.597153
1845.912720	185.216171
1845.102661	182.098602
1844.292603	197.497452
1843.482300	200.549606
1842.671875	169.667267
1841.861328	191.229111
1841.050659	160.358719
1840.239868	184.998154
1839.428833	169.553101
1838.617798	203.429474
1837.806519	194.149994
1836.995117	200.279770
1836.183716	160.196854
1835.372070	209.452927
1834.560303	175.541275
1833.748291	163.195099
1832.936279	184.718063
1832.124146	184.686966
1831.311768	175.423065
1830.499390	163.085205
1829.686768	206.129608
1828.874023	203.018845
1828.061157	187.607025
1827.248169	190.650421
1826.434937	202.916260
1825.621704	196.734131
1824.808228	193.627533
1823.994751	178.230240
1823.181030	193.562286
1822.367188	211.961075
1821.553223	175.068771
1820.739136	211.889633
1819.924927	184.220795
1819.110474	187.259583
1818.296021	187.228012
1817.481323	187.196457
1816.666626	171.823502
1815.851685	168.726776
1815.036621	187.101791
1814.221436	180.936783
1813.406006	168.641449
1812.590576	208.466980
1811.774902	174.714905
1810.959229	168.556137
1810.143311	217.553940
1809.327271	205.262756
1808.511108	174.597061
1807.694824	171.505020
1806.878418	211.283020
1806.061768	183.693375
1805.245117	183.662369
1804.428223	201.994522
1803.611206	208.080444
1802.794067	189.688385
1801.976807	195.774323
1801.159424	198.799728
1800.341919	214.055878
1799.524170	201.790039
1798.706421	229.268158
1797.888428	198.665512
1797.070313	207.799606
1796.252075	216.930603
1795.433716	195.510056
1794.615234	195.477036
1793.796509	183.228775
1792.977783	207.624207
1792.158813	161.797409
1791.339844	183.135941
1790.520630	207.518997
1789.701294	180.022827
1788.881714	213.550323
1788.062134	192.162827
1787.242432	195.180038
1786.422485	195.147049
1785.602417	201.211395
1784.782349	231.658798
1783.962036	192.000504
1783.141479	213.297836
1782.320923	204.121979
1781.500244	194.949234
1780.679321	179.688446
1779.858398	219.243729
1779.037231	173.538605
1778.215942	182.641327
1777.394531	225.219543
1776.572998	222.138474
1775.751221	206.888504
1774.929443	197.727631
1774.107422	218.984329
1773.285278	212.865417
1772.463013	194.586884
1771.640625	191.514053
1770.818115	191.481659
1769.995483	197.527008
1769.172607	212.685394
1768.349731	179.233063
1767.526611	209.576080
1766.703369	200.430145
1765.880005	176.105774
1765.056519	166.968582
1764.232910	188.187271
1763.409058	200.294479
1762.585083	230.603073
1761.761108	206.294128
1760.936890	194.126312
1760.112549	206.224274
1759.288086	218.318146
1758.463379	203.122757
1757.638672	184.901337
1756.813721	206.084610
1755.988647	224.230560
1755.163574	218.133316
1754.338257	169.630508
1753.512695	202.916397
1752.687134	199.853928
1751.861328	196.792480
1751.035522	257.300415
1750.209473	223.964752
1749.383301	202.744537
1748.557007	226.914368
1747.730591	205.700821
1746.903931	187.518967
1746.077271	199.583115
1745.250366	226.760544
1744.423340	202.538422
1743.596313	229.706116
1742.768921	244.776840
1741.941528	250.778183
1741.114014	226.568375
1740.286255	208.407547
1739.458374	244.610840
1738.630493	220.414352
1737.802368	250.565598
1736.973999	223.357941
1736.145630	208.230850
1735.317139	226.299484
1734.488403	208.160202
1733.659546	199.075974
1732.830566	186.979019
1732.001465	208.054245
1731.172241	183.900803
1730.342896	214.012146
1729.513306	210.962067
1728.683594	213.939499
1727.853882	231.979507
1727.023926	201.818024
1726.193726	210.818863
1725.363525	243.906113
1724.533203	207.736588
1723.702637	246.833450
1722.871948	228.733612
1722.041138	204.621628
1721.210205	237.681824
1720.379150	231.625214
1719.547974	234.593475
1718.716553	243.574905
1717.885010	231.507187
1717.053467	228.461777
1716.221558	237.439651
1715.389648	234.394257
1714.557617	249.377136
1713.725342	213.286362
1712.893066	210.246582
1712.060547	183.183746
1711.227905	225.187637
1710.395142	237.157318
1709.562256	198.097748
1708.729126	216.069901
1707.895874	225.034531
1707.062622	233.996124
1706.229126	236.955780
1705.395508	242.913345
1704.561646	182.903625
1703.727783	221.845352
1702.893677	236.794617
1702.059570	218.772995
1701.225220	230.721313
1700.390747	233.677933
1699.556030	224.652084
1698.721313	233.598419
1697.886353	245.536041
1697.051392	212.562103
1696.216187	254.432449
1695.380859	260.374786
1694.545410	224.422806
1693.709717	224.384613
1692.874023	251.267990
1692.038086	233.280563
1691.202026	257.162994
1690.365845	236.190887
1689.529541	215.225937
1688.692993	271.975342
1687.856445	271.929047
1687.019653	227.066895
1686.182739	209.104935
1685.345703	232.962967
1684.508545	226.950897
1683.671143	220.940857
1682.833740	235.829117
1681.996094	268.620300
1681.158325	259.622070
1680.320435	265.545135
1679.482422	205.836990
1678.644287	235.628281
1677.805908	250.498764
1676.967407	220.639862
1676.128784	262.337830
1675.290039	196.719833
1674.451172	211.586777
1673.612183	265.183289
1672.772949	214.493713
1671.933594	238.285721
1671.094116	273.981842
1670.254517	226.294235
1669.414795	229.232697
1668.574829	255.982468
1667.734863	261.890869
1666.894653	252.919632
1666.054321	249.901474
1665.213867	258.782379
1664.373169	261.712219
1663.532471	240.853119
1662.691528	255.676956
1661.850464	231.853485
1661.009277	240.729843
1660.167969	225.831436
1659.326538	282.241119
1658.484863	261.399780
1657.643066	246.505432
1656.801147	264.279999
1655.959106	243.452362
1655.116943	258.252930
1654.274658	216.657974
1653.432129	255.197327
1652.589478	240.319229
1651.746704	228.412598
1650.903809	266.930176
1650.060791	266.884583
1649.217529	231.260468
1648.374146	249.007202
1647.530640	237.109207
1646.687012	228.178619
1645.843262	242.953903
1644.999390	272.535858
1644.155273	254.718246
1643.311035	284.288055
1642.466675	242.787888
1641.622192	260.508331
1640.777588	295.981598
1639.932739	281.134460
1639.087769	292.921631
1638.242798	257.371979
1637.397461	278.032532
1636.552124	260.241272
1635.706665	248.369644
1634.860962	283.802490
1634.015137	236.461639
1633.169189	283.705444
1632.323120	277.747406
1631.476929	259.974365
1630.630493	295.374878
1629.783936	268.745178
1628.937256	289.368378
1628.090454	259.796539
1627.243530	242.041718
1626.396484	301.024750
1625.549194	253.761765
1624.701782	247.817917
1623.854248	241.876083
1623.006592	247.733093
1622.158691	232.947205
1621.310791	241.751923
1620.462646	224.024399
1619.614380	241.669159
1618.765991	291.721344
1617.917358	256.317291
1617.068726	215.034012
1616.219849	268.010193
1615.370850	262.074982
1614.521729	267.918396
1613.672363	232.548676
1612.822998	223.679382
1611.973389	238.354309
1611.123657	244.197754
1610.273804	267.689026
1609.423828	288.231110
1608.573608	288.181702
1607.723389	255.790955
1606.872925	302.781067
1606.022339	255.703293
1605.171509	282.106995
1604.320679	287.934875
1603.469604	258.509460
1602.618408	281.961975
1601.767090	273.103821
1600.915649	293.609680
1600.064087	287.688171
1599.212280	231.872116
1598.360352	272.916565
1597.508301	272.869781
1596.656128	255.221497
1595.803833	261.043884
1594.951294	258.066528
1594.098633	258.022278
1593.245850	290.225250
1592.392944	237.416306
1591.539795	266.681183
1590.686646	298.866089
1589.833252	275.378357
1588.979736	301.692596
1588.126099	263.569641
1587.272217	243.028076
1586.418335	257.624084
1585.564209	257.579865
1584.709961	260.462219
1583.855591	263.343536
1583.000977	289.628143
1582.146362	312.978699
1581.291504	257.358856
1580.436523	248.542572
1579.581421	318.664581
1578.726074	263.072357
1577.870605	289.329895
1577.015137	251.293900
1576.159424	265.858337
1575.303467	286.259796
1574.447510	280.369598
1573.591309	289.081482
1572.734985	291.951324
1571.878540	277.306091
1571.021973	291.851013
1570.165161	297.636871
1569.308350	259.658112
1568.451294	280.032532
1567.594116	233.320343
1566.736694	282.852295
1565.879272	311.958679
1565.021606	276.925049
1564.163818	259.390442
1563.305908	332.195801
1562.447876	291.349701
1561.589600	285.473633
1560.731201	267.949554
1559.872681	285.375427
1559.014038	291.149353
1558.155273	311.476227
1557.296265	244.481323
1556.437134	320.099030
1555.577881	320.043976
1554.718506	290.899017
1553.859009	282.123474
1552.999268	287.890930
1552.139404	314.008759
1551.279419	293.605804
1550.419312	287.742310
1549.558960	264.444885
1548.698608	307.981689
1547.838013	249.828918
1546.977173	273.021790
1546.116333	284.590759
1545.255249	278.734772
1544.394165	313.522614
1543.532837	307.663666
1542.671265	307.610687
1541.809692	319.163666
1540.947876	304.603760
1540.085938	281.347382
1539.223877	301.598846
1538.361694	316.044312
1537.499268	295.696960
1536.636841	260.864105
1535.774170	304.289032
1534.911377	289.749146
1534.048340	263.626282
1533.185303	295.442261
1532.322021	298.287354
1531.458618	327.190887
1530.594971	277.919556
1529.731323	306.816620
1528.867432	283.611755
1528.003418	295.136841
1527.139282	326.908966
1526.275024	277.680084
1525.410522	303.660217
1524.545898	280.475830
1523.681152	332.465546
1522.816284	297.722107
1521.951172	315.010803
1521.086060	314.956482
1520.220703	288.901031
1519.355225	309.070801
1518.489502	303.241425
1517.623779	294.526581
1516.757813	294.475739
1515.891724	308.857513
1515.025513	288.602081
1514.159058	277.010193
1513.292480	276.962372
1512.425781	285.568146
1511.558960	294.170929
1510.692017	294.120148
1509.824829	276.771179
1508.957520	302.666199
1508.090088	314.142090
1507.222534	328.495544
1506.354736	316.914642
1505.486938	308.218292
1504.618896	288.004730
1503.750610	299.473175
1502.882324	273.509979
1502.013794	313.762482
1501.145142	290.683838
1500.276367	333.797028
1499.407471	299.214569
1498.538330	302.039429
1497.669067	299.111176
1496.799683	307.686188
1495.930176	299.007813
1495.060547	324.827332
1494.190674	319.023010
1493.320679	333.335785
1492.450562	333.278168
1491.580200	350.456085
1490.709717	301.569885
1489.839233	327.362122
1488.968384	318.692200
1488.097534	332.990112
1487.226440	324.322205
1486.355347	347.223022
1485.483887	367.246765
1484.612427	338.497040
1483.740845	341.306610
1482.869019	346.982819
1481.997070	366.992706
1481.124878	429.995148
1480.252686	372.597992
1479.380249	386.861725
1478.507690	389.659912
1477.635010	360.945953
1476.762207	403.845795
1475.889160	406.639557
1475.015991	406.569183
1474.142700	463.752136
1473.269165	477.982697
1472.395630	549.441833
1471.521851	517.873718
1470.647949	517.784058
1469.773804	560.597229
1468.899658	520.464417
1468.025269	646.179016
1467.150757	677.512878
1466.276001	643.096985
1465.401245	668.705017
1464.526245	717.161865
1463.651123	702.754028
1462.775879	759.756836
1461.900391	751.057922
1461.024780	805.177307
1460.149048	810.747253
1459.273193	799.189758
1458.397217	733.414917
1457.520996	821.738831
1456.644653	775.952148
1455.768188	790.078979
1454.891479	744.313538
1454.014648	695.712708
1453.137695	772.563354
1452.260620	686.920593
1451.383423	695.350830
1450.505981	675.285095
1449.628418	729.295410
1448.750732	709.230652
1447.872803	737.585876
1446.994873	708.984619
1446.116699	740.176819
1445.238403	794.128845
1444.359863	822.449524
1443.481201	904.821960
1442.602417	955.872437
1441.723511	1012.593811
1440.844482	1157.455444
1439.965210	1276.676392
1439.085815	1327.626709
1438.206299	1333.081055
1437.326538	1341.375244
1436.446777	1179.182373
1435.566772	1167.614014
1434.686646	1050.954224
1433.806274	917.295288
1432.925781	817.755920
1432.045166	820.452820
1431.164429	703.934143
1430.283569	655.566650
1429.402466	646.940430
1428.521240	541.860291
1427.639893	521.910889
1426.758301	538.836060
1425.876709	516.058533
1424.994873	547.153809
1424.112793	510.210205
1423.230713	461.943390
1422.348389	521.366943
1421.465942	456.116760
1420.583374	475.865204
1419.700562	574.903809
1418.817627	586.130066
1417.934570	631.325012
1417.051392	668.012512
1416.167969	769.778870
1415.284546	820.577393
1414.400757	862.870911
1413.516968	780.691650
1412.633057	718.337646
1411.748901	588.142700
1410.864624	539.979370
1409.980103	443.780182
1409.095459	367.397369
1408.210815	389.938568
1407.325806	361.619202
1406.440796	361.556274
1405.555542	313.482513
1404.670166	324.722656
1403.784668	364.190704
1402.899048	350.013855
1402.013184	299.153320
1401.127197	296.279510
1400.241089	352.652313
1399.354736	315.921448
1398.468262	301.765259
1397.581665	324.270660
1396.694946	321.394958
1395.807983	332.614014
1394.920898	295.918549
1394.033691	349.404846
1393.146362	323.988373
1392.258789	321.115143
1391.371094	323.875488
1390.483276	309.739960
1389.595337	292.794037
1388.707153	323.706207
1387.818848	334.907196
1386.930420	320.779541
1386.041748	317.910278
1385.152954	306.603363
1384.264038	357.172821
1383.375000	320.555939
1382.485718	320.500061
1381.596313	297.956879
1380.706787	342.871704
1379.817139	292.233093
1378.927246	306.229340
1378.037231	297.749084
1377.147095	311.739471
1376.256714	339.764832
1375.366333	356.550476
1374.475586	348.067291
1373.584839	345.200073
1372.693970	331.109772
1371.802856	336.663025
1370.911499	333.799255
1370.020142	387.027374
1369.128540	403.784180
1368.236816	364.463776
1367.344971	344.778595
1366.453003	386.757263
1365.560791	381.085541
1364.668457	344.598083
1363.775879	389.355865
1362.883301	352.879639
1361.990479	355.618164
1361.097534	372.354004
1360.204346	347.096497
1359.311035	347.035858
1358.417603	302.204254
1357.524048	313.342255
1356.630249	310.490326
1355.736450	296.452454
1354.842285	315.974304
1353.948120	301.940369
1353.053711	338.225952
1352.159180	301.834869
1351.264526	340.902008
1350.369751	293.347992
1349.474731	315.643158
1348.579590	315.587982
1347.684204	315.532806
1346.788818	343.396027
1345.893188	357.292725
1344.997314	323.739929
1344.101440	346.006317
1343.205322	312.467163
1342.309082	340.306519
1341.412720	331.880249
1340.516113	320.668518
1339.619385	317.824493
1338.722534	340.068481
1337.825439	323.287231
1336.928223	306.511841
1336.030884	320.388153
1335.133423	314.761078
1334.235718	328.631042
1333.337891	297.943817
1332.439941	267.267303
1331.541870	292.272430
1330.643555	331.184113
1329.745117	353.386719
1328.846436	336.632355
1327.947754	331.010223
1327.048828	322.608917
1326.149780	344.797424
1325.250488	353.077484
1324.351074	344.676697
1323.451538	325.162170
1322.551880	369.564056
1321.651978	338.939240
1320.751953	333.324463
1319.851807	352.706604
1318.951416	341.537872
1318.050903	341.478058
1317.150269	333.090942
1316.249512	360.785278
1315.348511	335.748993
1314.447388	374.530334
1313.546021	357.821838
1312.644653	379.945709
1311.743042	368.787750
1310.841309	424.170197
1309.939331	426.867706
1309.037231	390.764893
1308.135010	448.885193
1307.232666	432.184021
1306.330078	443.187958
1305.427368	437.571350
1304.524536	451.339355
1303.621460	487.250275
1302.718262	459.484985
1301.814941	545.196777
1300.911499	536.800110
1300.007813	553.305054
1299.104004	586.400452
1298.199951	732.872009
1297.295898	832.285889
1296.391602	1089.246094
1295.487061	1500.905762
1294.582520	2025.728882
1293.677734	2133.135254
1292.772827	1903.461426
1291.867676	1555.095337
1290.962402	1068.767700
1290.057007	792.461182
1289.151489	623.919128
1288.245728	513.400757
1287.339844	474.674347
1286.433838	419.405975
1285.527588	372.433289
1284.621216	413.742096
1283.714722	358.513489
1282.808105	366.722443
1281.901245	322.548798
1280.994263	363.837250
1280.087036	355.505737
1279.179810	360.954041
1278.272217	305.792786
1277.364624	291.967010
1276.456787	305.685333
1275.548828	305.631592
1274.640747	308.330811
1273.732544	357.821075
1272.824097	335.742279
1271.915405	316.422729
1271.006714	324.620148
1270.097778	321.812531
1269.188721	316.255829
1268.279541	313.450653
1267.370117	296.901031
1266.460571	329.832001
1265.550781	318.781525
1264.640991	321.473083
1263.730957	324.163666
1262.820679	277.413300
1261.910400	304.826324
1260.999878	288.298492
1260.089233	312.954712
1259.178345	277.218079
1258.267334	285.402039
1257.356201	296.326874
1256.444824	285.301575
1255.533447	268.794556
1254.621704	276.974182
1253.709961	263.216248
1252.797974	290.583435
1251.885864	271.346161
1250.973633	276.779144
1250.061157	241.111649
1249.148560	298.597046
1248.235840	243.765656
1247.322876	265.630371
1246.409790	279.273468
1245.496582	262.799316
1244.583130	260.015991
1243.669556	229.868378
1242.755859	224.355774
1241.841919	265.349701
1240.927856	243.422272
1240.013672	254.317780
1239.099365	292.550598
1238.184814	256.961761
1237.270142	265.115936
1236.355225	295.128571
1235.440186	270.486847
1234.525024	245.853775
1233.609741	281.316376
1232.694214	278.536011
1231.778564	262.105316
1230.862671	262.059082
1229.946777	259.283569
1229.030640	289.254822
1228.114258	278.290466
1227.197876	264.602081
1226.281128	256.373260
1225.364380	253.601135
1224.447388	272.641296
1223.530273	261.689453
1222.613037	253.466904
1221.695557	253.422180
1220.777954	286.071320
1219.860229	242.436691
1218.942261	228.776260
1218.024170	250.520233
1217.105957	264.088837
1216.187500	247.709702
1215.268921	242.222748
1214.350220	261.227844
1213.431274	236.695923
1212.512207	282.896881
1211.593018	247.491043
1210.673706	225.693710
1209.754150	258.278503
1208.834351	244.641663
1207.914551	241.880676
1206.994507	282.597137
1206.074219	290.697601
1205.153931	252.617767
1204.233398	198.256317
1203.312744	255.243835
1202.391846	241.624329
1201.470825	228.009613
1200.549683	282.247711
1199.628296	274.057495
1198.706787	238.740555
1197.785156	233.273376
1196.863281	235.944138
1195.941284	295.555878
1195.019165	246.704865
1194.096802	233.108414
1193.174438	246.617599
1192.251709	273.670013
1191.328979	238.402985
1190.406006	262.738617
1189.482788	254.567627
1188.559570	281.599457
1187.636108	278.842438
1186.712402	251.725784
1185.788696	262.506256
1184.864746	257.048248
1183.940552	238.065704
1183.016357	273.186127
1182.091919	256.911774
1181.167236	273.089417
1180.242554	300.074829
1179.317505	237.855042
1178.392456	289.158905
1177.467163	291.809631
1176.541748	264.743317
1175.616211	291.706299
1174.690430	302.456635
1173.764526	305.103088
1172.838501	340.143188
1171.912231	342.781982
1170.985840	334.625488
1170.059204	418.207733
1169.132446	410.040741
1168.205566	455.819763
1167.278564	377.535248
1166.351318	404.430359
1165.423828	361.227081
1164.496338	334.210571
1163.568604	288.340271
1162.640747	301.760620
1161.712646	299.013306
1160.784424	266.640259
1159.856079	290.828674
1158.927490	274.622833
1157.998779	274.574127
1157.069946	279.908295
1156.140869	223.348709
1155.211670	274.428040
1154.282349	303.969299
1153.352783	236.677460
1152.423096	287.727203
1151.493164	295.741852
1150.563232	290.313202
1149.632935	282.198853
1148.702637	249.903198
1147.772095	247.172195
1146.841431	295.479523
1145.910522	279.312866
1144.979492	273.892822
1144.048340	273.844208
1143.116943	319.428192
1142.185425	300.584900
1141.253784	300.531525
1140.321899	313.892365
1139.389893	319.201355
1138.457764	337.917877
1137.525391	327.132202
1136.592896	372.649994
1135.660278	391.347015
1134.727417	477.036926
1133.794434	517.144775
1132.861206	557.238342
1131.927856	755.352356
1130.994385	918.580872
1130.060669	1220.986694
1129.126831	1507.222290
1128.192871	1531.044189
1127.258667	1509.362671
1126.324341	1220.118774
1125.389893	1037.986694
1124.455200	735.555664
1123.520386	641.825317
1122.585327	577.540100
1121.650146	505.257721
1120.714844	467.748016
1119.779297	451.630585
1118.843628	430.175110
1117.907837	328.584625
1116.971802	352.564667
1116.035645	376.536163
1115.099365	328.409271
1114.162842	325.681335
1113.226196	330.961456
1112.289307	312.222595
1111.352417	293.490356
1110.415161	325.449554
1109.477905	328.058777
1108.540405	285.333649
1107.602661	322.609589
1106.664917	309.223541
1105.726807	277.185547
1104.788696	298.454346
1103.850342	282.415436
1102.911865	293.020416
1101.973145	308.948334
1101.034302	324.870544
1100.095337	322.150269
1099.156128	295.473633
1098.216797	322.035492
1097.277344	290.046417
1096.337646	284.673737
1095.397827	313.883301
1094.457764	316.486938
1093.517700	289.839722
1092.577271	324.349945
1091.636841	342.899078
1090.696167	358.783905
1089.755249	356.062744
1088.814209	350.685852
1087.873047	355.935822
1086.931763	318.691650
1085.990234	371.740631
1085.048584	363.709900
1084.106689	353.027649
1083.164673	352.964691
1082.222412	363.515320
1081.280151	405.897247
1080.337524	360.733185
1079.394897	379.232666
1078.452026	360.604492
1077.509033	365.842194
1076.565796	355.174683
1075.622437	365.711639
1074.678955	362.996765
1073.735229	325.844055
1072.791382	362.867218
1071.847290	360.154236
1070.903076	352.146790
1069.958740	386.498138
1069.014160	397.016235
1068.069458	426.054657
1067.124512	449.791046
1066.179565	568.751770
1065.234253	663.866089
1064.288940	891.166992
1063.343384	1007.341125
1062.397583	1152.551880
1061.451660	1123.273071
1060.505615	1141.570068
1059.559448	1093.809204
1058.613037	850.588440
1057.666382	668.200073
1056.719727	591.502258
1055.772827	522.752319
1054.825684	459.306274
1053.878418	369.490723
1052.931030	361.508423
1051.983398	332.422760
1051.035645	313.898712
1050.087769	292.743927
1049.139648	287.417847
1048.191406	308.457581
1047.242920	292.586884
1046.294312	292.534576
1045.345581	289.847260
1044.396606	263.450378
1043.447510	279.207458
1042.498291	268.623260
1041.548828	279.107574
1040.599121	300.118561
1039.649414	271.111237
1038.699341	302.642853
1037.749268	276.276642
1036.798950	242.027634
1035.848511	257.765900
1034.897827	239.311203
1033.947021	265.561584
1032.996094	254.998627
1032.044922	299.635468
1031.093506	262.791046
1030.142090	241.724487
1029.190430	254.816040
1028.238525	260.023407
1027.286499	254.724777
1026.334351	207.419098
1025.381958	299.260040
1024.429443	262.461761
1023.476807	299.152802
1022.523926	267.615082
1021.570923	257.074310
1020.617737	257.028229
1019.664368	277.960327
1018.710815	270.045105
1017.757080	275.239349
1016.803223	251.602310
1015.849121	272.520294
1014.894897	277.711304
1013.940491	267.183716
1012.985962	267.135803
1012.031189	256.613861
1011.076294	264.421967
1010.121216	266.992126
1009.165955	259.092926
1008.210510	272.129608
1007.254944	245.919189
1006.299133	243.259384
1005.343201	243.215744
1004.387085	245.786865
1003.430786	274.499878
1002.474365	274.450623
1001.517700	266.561340
1000.560913	271.739258
999.603943	227.279541
998.646790	242.910385
997.689514	242.866791
996.731995	224.546173
995.774353	276.716522
994.816528	266.226593
993.858521	227.034851
992.900330	229.603210
991.942017	234.779282
990.983459	271.251801
990.024780	250.341293
989.065918	271.154358
988.106873	224.183517
987.147705	244.993774
986.188293	242.343918
985.228760	260.538025
984.269043	244.861740
983.309143	250.026627
982.349060	247.377731
981.388794	242.126251
980.428406	242.082733
979.467834	234.231506
978.507019	236.791504
977.546082	241.952209
976.585022	241.908707
975.623718	270.472931
974.662292	252.222656
973.700623	226.179642
972.738831	236.536148
971.776855	228.697113
970.814758	236.451080
969.852417	231.212753
968.889954	257.145447
967.927246	257.099182
966.964417	233.684479
966.001404	249.218597
965.038208	241.387070
964.074890	233.558350
963.111328	220.543198
962.147644	251.633408
961.183777	238.619644
960.219727	238.576691
959.255493	212.606171
958.291077	243.675385
957.326538	235.856033
956.361755	246.179001
955.396851	256.498230
954.431763	248.680771
953.466492	256.405853
952.501038	274.486115
951.535461	225.245193
950.569641	227.793182
949.603699	263.985443
948.637573	235.473984
947.671265	235.431564
946.704773	235.389145
945.738098	237.932953
944.771240	248.233124
943.804260	253.358963
942.837097	232.634674
941.869751	245.514557
940.902222	263.557587
939.934509	245.426041
938.966614	237.632889
937.998535	265.997559
937.030334	247.875336
936.061951	227.178085
935.093323	258.110352
934.124573	245.160614
933.155640	250.276749
932.186584	250.231598
931.217285	268.241150
930.247864	263.035187
929.278198	237.204636
928.308411	275.829529
927.338440	268.047607
926.368286	247.383896
925.397949	270.527313
924.427429	270.478485
923.456787	262.703094
922.485901	290.981293
921.514893	249.735306
920.543701	234.245468
919.572327	293.397369
918.600769	285.624817
917.629028	213.536743
916.657104	264.943512
915.685059	270.039276
914.712769	236.563095
913.740356	239.091248
912.767761	280.174591
911.794983	282.693939
910.822021	267.225952
909.848877	272.315704
908.875549	256.855194
907.902039	279.921570
906.928406	277.303345
905.954590	264.417450
904.980530	243.836075
904.006348	266.888092
903.031982	271.971375
902.057434	264.226288
901.082703	300.086273
900.107849	287.210144
899.132751	282.030365
898.157532	281.979370
897.182068	279.365387
896.206482	240.877029
895.230713	269.016113
894.254761	268.967438
893.278625	258.674255
892.302307	256.066772
891.325806	286.742889
890.349182	291.810486
889.372314	235.453583
888.395325	281.469635
887.418091	286.535400
886.440735	278.809875
885.463196	296.661377
884.485474	288.936768
883.507568	270.988983
882.529480	288.832153
881.551270	265.779694
880.572815	250.400909
879.594238	278.456696
878.615417	280.960449
877.636475	301.339355
876.657349	280.858673
875.677979	280.807800
874.698486	293.518616
873.718811	301.121033
872.739014	285.758026
871.758972	295.910034
870.778748	270.351532
869.798401	290.702728
868.817810	280.451813
867.837097	280.400970
866.856140	265.058319
865.875061	277.751160
864.893799	305.725647
863.912354	298.028442
862.930725	272.506531
861.948914	323.383667
860.966919	285.137024
859.984741	277.449097
859.002441	251.949341
858.019897	272.259491
857.037231	290.018250
856.054321	274.704285
855.071289	277.197540
854.088074	287.317780
853.104614	282.181305
852.121033	284.671814
851.137268	274.455139
850.153320	261.701385
849.169189	284.516846
848.184937	266.686127
847.200439	279.334747
846.215759	294.517700
845.230896	284.310303
844.245911	258.878418
843.260681	256.293854
842.275330	286.692535
841.289795	266.347351
840.304016	246.009521
839.318115	306.822113
838.332031	263.666962
837.345764	248.410278
836.359314	271.174194
835.372681	258.455536
834.385864	245.741470
833.398865	255.828644
832.411743	258.314667
831.424377	288.652130
830.436829	250.626038
829.449158	260.704926
828.461243	265.718872
827.473206	258.079956
826.484924	275.741180
825.496521	263.044678
824.507935	260.468018
823.519104	247.778885
822.530151	283.124359
821.541016	262.853363
820.551697	250.170685
819.562195	272.863831
818.572510	255.131790
817.582642	262.662170
816.592590	255.038956
815.602356	257.517212
814.611938	300.382080
813.621399	292.756134
812.630615	277.563049
811.639648	247.238449
810.648560	252.238205
809.657227	249.670364
808.665771	239.539047
807.674072	272.268494
806.682251	229.369644
805.690186	282.249695
804.697998	269.600159
803.705566	302.300262
802.713013	269.501953
801.720276	274.489380
800.727356	256.814819
799.734253	286.976044
798.740906	276.856262
797.747437	246.608826
796.753784	289.335175
795.759949	284.251434
794.765930	266.594360
793.771729	289.177002
792.777344	279.067810
791.782776	261.421265
790.788025	251.320786
789.793091	276.402466
788.798035	286.401245
787.802734	273.789856
786.807251	256.160278
785.811584	266.157257
784.815796	281.171448
783.819763	281.120178
782.823547	245.935287
781.827148	235.854080
780.830627	291.000885
779.833862	245.800705
778.836975	235.725006
777.839844	243.203766
776.842529	263.213776
775.845093	265.672058
774.847412	253.094162
773.849609	250.542542
772.851563	273.041534
771.853394	272.991669
770.854980	257.917511
769.856445	252.863235
768.857666	260.326477
767.858765	235.252121
766.859680	240.213608
765.860352	275.194489
764.860901	252.632431
763.861206	247.584564
762.861389	272.543304
761.861389	274.993469
760.861145	219.954575
759.860779	264.896881
758.860168	247.358475
757.859436	257.305725
756.858521	264.751678
755.857361	244.725677
754.856079	269.648407
753.854614	287.073120
752.852905	269.549805
751.851074	264.509796
750.848999	242.007156
749.846802	256.929688
748.844421	279.328766
747.841797	289.251862
746.839050	274.240417
745.836121	269.204956
744.832947	254.202621
743.829651	241.697495
742.826111	254.109634
741.822449	306.370239
740.818604	249.035934
739.814514	268.909576
738.810303	256.413147
737.805847	283.745117
736.801270	271.250519
735.796448	291.105499
734.791504	276.126465
733.786316	288.511780
732.781006	283.485504
731.775452	268.516052
730.769775	288.353302
729.763855	273.388428
728.757751	270.853455
727.751526	263.350525
726.745056	288.142120
725.738403	268.221130
724.731628	293.002716
723.724609	270.605469
722.717407	273.038055
721.710083	285.396576
720.702515	272.937988
719.694763	248.079987
718.686829	290.200378
717.678711	277.747742
716.670410	277.696838
715.661987	270.208984
714.653320	257.766815
713.644470	277.544128
712.635437	262.627533
711.626221	289.828186
710.616821	257.577789
709.607178	264.959320
708.597412	289.668732
707.587463	299.516998
706.577332	252.439087
705.567017	267.239410
704.556458	227.606613
703.545776	254.773697
702.534912	249.780792
701.523804	276.933807
700.512573	257.105621
699.501099	259.530151
698.489502	274.310089
697.477661	269.318115
696.465698	259.387268
695.453491	264.279449
694.441101	279.047607
693.428589	256.775421
692.415833	269.070984
691.402893	273.957733
690.389771	219.619476
689.376465	251.652481
688.362976	266.406647
687.349304	271.290253
686.335449	231.787247
685.321411	278.586670
684.307190	256.351257
683.292725	276.019836
682.278137	253.793030
681.263367	273.454834
680.248352	248.773544
679.233215	283.204926
678.217834	268.379669
677.202332	278.177338
676.186584	255.974548
675.170654	280.535889
674.154541	255.880417
673.138306	290.272461
672.121826	245.948380
671.105164	265.575409
670.088318	250.775070
669.071289	245.812683
668.054016	265.428864
667.036621	248.179474
666.019043	275.158295
665.001282	307.039795
663.983276	282.424622
662.965149	267.640167
661.946777	260.226013
660.928223	289.632263
659.909546	269.946472
658.890625	279.711212
657.871521	274.753387
656.852234	284.513641
655.832764	247.677460
654.813110	289.312469
653.793274	272.099731
652.773254	264.696930
651.752991	254.846405
650.732605	262.149445
649.711975	264.550690
648.691223	276.747406
647.670227	269.350494
646.649048	276.645447
645.627747	261.908051
644.606201	259.412476
643.584473	274.045685
642.562561	269.102417
641.540466	266.606873
640.518127	251.884842
639.495667	244.503296
638.473022	268.904053
637.450134	288.407532
636.427063	273.692261
635.403870	283.414703
634.380432	310.233002
633.356812	283.310181
632.333008	312.560455
631.309021	266.115662
630.284851	261.184631
629.260498	275.779602
628.235901	290.369171
627.211182	251.281570
626.186218	265.870270
625.161133	292.647186
624.135803	290.154907
623.110291	280.350037
622.084595	290.047791
621.058716	282.683472
620.032654	272.885376
619.006409	255.782822
617.979919	292.269257
616.953308	272.734253
615.926453	267.814545
614.899414	296.975800
613.872253	287.185852
612.844849	250.632874
611.817261	294.378387
610.789490	277.296997
609.761475	255.357956
608.733337	282.057617
607.705017	257.694672
606.676453	267.369568
605.647705	262.459808
604.618774	281.849182
603.589722	274.509216
602.560425	301.175659
601.530884	286.549683
600.501221	267.073181
599.471375	259.741333
598.441284	283.963715
597.411011	259.645294
596.380615	281.432556
595.349976	266.826355
594.319153	283.753693
593.288147	249.754059
592.256897	273.951355
591.225525	266.628967
590.193970	276.273438
589.162170	290.760345
588.130188	302.819305
587.098022	300.341156
586.065674	247.009094
585.033142	254.227005
584.000427	300.174408
582.967468	285.596954
581.934387	314.582489
580.901062	295.168884
579.867554	297.533203
578.833862	285.385498
577.799988	278.078430
576.765930	280.444550
575.731628	321.484650
574.697205	287.590881
573.662537	294.786438
572.627747	251.246811
571.592712	277.769531
570.557434	280.132996
569.522034	248.692688
568.486450	265.544922
567.450623	260.668518
566.414673	299.230591
565.378479	272.635406
564.342102	284.646149
563.305542	287.005188
562.268799	311.065582
561.231812	294.131500
560.194702	262.740875
559.157349	322.942657
558.119812	279.510468
557.082092	305.959015
556.044189	279.406769
555.006042	291.396118
553.967773	308.196564
552.929260	279.251312
551.890625	310.489105
550.851746	312.837921
549.812683	295.937897
548.773376	293.477417
547.733948	269.371887
546.694275	307.796448
545.654419	293.314026
544.614441	314.893463
543.574158	257.155304
542.533752	295.553558
541.493164	309.913269
540.452332	302.649750
539.411316	302.593567
538.370178	307.339539
537.328735	314.484375
536.287170	304.825165
535.245422	319.167053
534.203430	280.718872
533.161255	311.851898
532.118896	318.989197
531.076355	287.756317
530.033630	321.268188
528.990723	294.840607
527.947571	318.752136
526.904236	318.692871
525.860718	299.467712
524.817017	316.179108
523.773132	311.330627
522.729004	373.527283
521.684692	313.608826
520.640198	335.092133
519.595520	289.561462
518.550659	308.648621
517.505615	318.159912
516.460327	325.275940
515.414856	310.867706
514.369202	308.419006
513.323364	320.313629
512.277283	301.134369
511.231079	293.909821
510.184631	312.967651
509.138000	317.686615
508.091187	288.969391
507.044159	262.650543
505.996948	303.185516
504.949554	310.289612
503.901947	305.459045
502.854126	343.577423
501.806152	310.116302
500.757965	288.592957
499.709564	324.308533
